Gradient Profiler Text Data File: hct116_polysome_leu.csv
Version: 1.88
Date: 2017-02-13
Time: 17:00:15

User: Alicia
Experiment name: 20170213_rpB_redohct1163h_polysomeshct1163h
UV Unit: EM-1
Rotor Manufacturer: Beckman
Rotor Model: SW41Ti
Speed: 35000 rpm
Gradient: sucrose 10.0% to 50.0% w/v
Time: 150
w2t:  x 10^0
Sample Volume: 0.3 ml
Number of Tubes: 8
Volume per mm: 0.143 ml/mm
Temperature: 4.0 deg C

Absorbance Units Full Scale (AUFS): 2.00
Manual-triggered gradient; (with distance; but no event marks)
Delay: No Delay
UV Wavelength: 254 nm
Samples / sec: 6 Hz
EM1 Speed: 0.22 mm/sec
Distance: 2.02 mm
Number: 52
Dead Volume: 0.000000 ml; Distance due to Dead Volume: 0.00 mm
Length of Tubing: 0 mm
Total Distance: 105.04 mm

Data Columns:
Distance(mm), Absorbance, Fraction Number, Fraction Volume(ml)
0.04, 0.043991, , 
0.08, 0.043949, , 
0.11, 0.044024, , 
0.15, 0.044116, , 
0.19, 0.044340, , 
0.22, 0.044401, , 
0.26, 0.044411, , 
0.30, 0.044482, , 
0.33, 0.044433, , 
0.37, 0.044500, , 
0.41, 0.044457, , 
0.44, 0.044338, , 
0.48, 0.044203, , 
0.52, 0.044022, , 
0.55, 0.044021, , 
0.59, 0.043977, , 
0.63, 0.043975, , 
0.66, 0.044017, , 
0.70, 0.043953, , 
0.74, 0.043977, , 
0.77, 0.044005, , 
0.81, 0.044250, , 
0.85, 0.044358, , 
0.88, 0.044401, , 
0.92, 0.044496, , 
0.96, 0.044605, , 
0.99, 0.044889, , 
1.03, 0.044936, , 
1.07, 0.044950, , 
1.10, 0.044946, , 
1.14, 0.044948, , 
1.18, 0.044974, , 
1.21, 0.044714, , 
1.25, 0.044544, , 
1.29, 0.044435, , 
1.32, 0.044377, , 
1.36, 0.044443, , 
1.40, 0.044389, , 
1.43, 0.044471, , 
1.47, 0.044467, , 
1.51, 0.044469, , 
1.54, 0.044482, , 
1.58, 0.044431, , 
1.62, 0.044435, , 
1.65, 0.044171, , 
1.69, 0.044054, , 
1.73, 0.044001, , 
1.76, 0.043965, , 
1.80, 0.043989, , 
1.84, 0.043947, , 
1.87, 0.043975, , 
1.91, 0.043943, , 
1.95, 0.043979, , 
1.98, 0.044003, , 
2.02, 0.043953, , 
2.06, 0.043981, , 
2.09, 0.043939, , 
2.13, 0.043981, , 
2.17, 0.043963, , 
2.20, 0.043929, , 
2.24, 0.043995, , 
2.28, 0.043981, , 
2.31, 0.044005, , 
2.35, 0.043985, , 
2.39, 0.043957, , 
2.42, 0.043993, , 
2.46, 0.043961, , 
2.50, 0.044017, , 
2.53, 0.043943, , 
2.57, 0.043951, , 
2.61, 0.043959, , 
2.64, 0.043892, , 
2.68, 0.043957, , 
2.72, 0.043943, , 
2.75, 0.043985, , 
2.79, 0.043929, , 
2.83, 0.043931, , 
2.86, 0.044005, , 
2.90, 0.043927, , 
2.94, 0.043979, , 
2.97, 0.043909, , 
3.01, 0.043721, , 
3.05, 0.043493, , 
3.08, 0.043384, , 
3.12, 0.043424, , 
3.16, 0.043362, , 
3.19, 0.043372, , 
3.23, 0.043390, , 
3.27, 0.043364, , 
3.30, 0.043426, , 
3.34, 0.043402, , 
3.38, 0.043430, , 
3.41, 0.043380, , 
3.45, 0.043414, , 
3.49, 0.043459, , 
3.52, 0.043382, , 
3.56, 0.043446, , 
3.60, 0.043358, , 
3.63, 0.043390, , 
3.67, 0.043432, , 
3.71, 0.043426, , 
3.74, 0.043469, , 
3.78, 0.043432, , 
3.82, 0.043481, , 
3.85, 0.043454, , 
3.89, 0.043442, , 
3.93, 0.043450, , 
3.96, 0.043412, , 
4.00, 0.043452, , 
4.04, 0.043430, , 
4.07, 0.043452, , 
4.11, 0.043459, , 
4.15, 0.043469, , 
4.18, 0.043650, , 
4.22, 0.043834, , 
4.26, 0.043951, , 
4.29, 0.043959, , 
4.33, 0.043957, , 
4.37, 0.043987, , 
4.40, 0.043894, , 
4.44, 0.043971, , 
4.48, 0.043927, , 
4.51, 0.043961, , 
4.55, 0.043955, , 
4.59, 0.043933, , 
4.62, 0.043999, , 
4.66, 0.043911, , 
4.70, 0.043957, , 
4.73, 0.043965, , 
4.77, 0.043917, , 
4.81, 0.043983, , 
4.84, 0.043949, , 
4.88, 0.044019, , 
4.92, 0.043957, , 
4.95, 0.043945, , 
4.99, 0.043985, , 
5.03, 0.043911, , 
5.06, 0.043981, , 
5.10, 0.043927, , 
5.14, 0.043965, , 
5.17, 0.043929, , 
5.21, 0.043896, , 
5.25, 0.043961, , 
5.28, 0.043911, , 
5.32, 0.043949, , 
5.36, 0.043929, , 
5.39, 0.043963, , 
5.43, 0.043965, , 
5.47, 0.043935, , 
5.50, 0.043975, , 
5.54, 0.043915, , 
5.58, 0.043973, , 
5.61, 0.043949, , 
5.65, 0.043923, , 
5.69, 0.043955, , 
5.72, 0.043911, , 
5.76, 0.044005, , 
5.80, 0.043989, , 
5.83, 0.043947, , 
5.87, 0.043961, , 
5.91, 0.043902, , 
5.94, 0.044003, , 
5.98, 0.044167, , 
6.02, 0.044346, , 
6.05, 0.044457, , 
6.09, 0.044437, , 
6.13, 0.044461, , 
6.16, 0.044413, , 
6.20, 0.044488, , 
6.24, 0.044457, , 
6.27, 0.044518, , 
6.31, 0.044736, , 
6.35, 0.044853, , 
6.38, 0.044946, , 
6.42, 0.044940, , 
6.46, 0.044964, , 
6.49, 0.045004, , 
6.53, 0.044964, , 
6.57, 0.044996, , 
6.60, 0.044950, , 
6.64, 0.044966, , 
6.68, 0.044984, , 
6.71, 0.044962, , 
6.75, 0.044984, , 
6.79, 0.044940, , 
6.82, 0.044974, , 
6.86, 0.044893, , 
6.90, 0.044964, , 
6.93, 0.044968, , 
6.97, 0.044901, , 
7.01, 0.044990, , 
7.04, 0.044960, , 
7.08, 0.044968, , 
7.12, 0.044926, , 
7.15, 0.044863, , 
7.19, 0.045018, , 
7.23, 0.045900, , 
7.26, 0.051601, , 
7.30, 0.077225, , 
7.34, 0.139514, , 
7.37, 0.212886, , 
7.41, 0.314333, , 
7.45, 0.420606, , 
7.48, 0.518681, , 
7.52, 0.616933, , 
7.56, 0.725463, , 
7.59, 0.824085, , 
7.63, 0.930311, , 
7.67, 1.017779, , 
7.70, 1.082139, , 
7.74, 1.117938, , 
7.78, 1.130648, , 
7.81, 1.134220, , 
7.85, 1.135680, , 
7.89, 1.136361, , 
7.92, 1.136758, , 
7.96, 1.137085, , 
8.00, 1.137244, , 
8.03, 1.137331, , 
8.07, 1.137489, , 
8.11, 1.137493, , 
8.14, 1.137569, , 
8.18, 1.137484, , 
8.22, 1.137206, , 
8.25, 1.136855, , 
8.29, 1.136298, , 
8.33, 1.135598, , 
8.36, 1.134674, , 
8.40, 1.133499, , 
8.44, 1.132167, , 
8.47, 1.130436, , 
8.51, 1.128325, , 
8.55, 1.125781, , 
8.58, 1.123594, , 
8.62, 1.120692, , 
8.66, 1.117332, , 
8.69, 1.114011, , 
8.73, 1.110197, , 
8.77, 1.105744, , 
8.80, 1.101264, , 
8.84, 1.095794, , 
8.88, 1.090279, , 
8.91, 1.084189, , 
8.95, 1.076880, , 
8.99, 1.068433, , 
9.02, 1.060733, , 
9.06, 1.050420, , 
9.10, 1.039203, , 
9.13, 1.028421, , 
9.17, 1.016914, , 
9.21, 1.003769, , 
9.24, 0.991087, , 
9.28, 0.976438, , 
9.32, 0.962591, , 
9.35, 0.948123, , 
9.39, 0.931946, , 
9.43, 0.915575, , 
9.46, 0.902223, , 
9.50, 0.885721, , 
9.54, 0.868839, , 
9.57, 0.853256, , 
9.61, 0.837496, , 
9.65, 0.821055, , 
9.68, 0.805144, , 
9.72, 0.788577, , 
9.76, 0.773758, , 
9.79, 0.758844, , 
9.83, 0.742594, , 
9.87, 0.726333, , 
9.90, 0.713122, , 
9.94, 0.697150, , 
9.98, 0.681167, , 
10.01, 0.666719, , 
10.05, 0.652229, , 
10.09, 0.636716, , 
10.12, 0.622958, , 
10.16, 0.608102, , 
10.20, 0.594666, , 
10.23, 0.581247, , 
10.27, 0.566815, , 
10.31, 0.552616, , 
10.34, 0.541346, , 
10.38, 0.527929, , 
10.42, 0.514609, , 
10.45, 0.502666, , 
10.49, 0.490823, , 
10.53, 0.478058, , 
10.56, 0.466796, , 
10.60, 0.454639, , 
10.64, 0.443890, , 
10.67, 0.433191, , 
10.71, 0.421679, , 
10.75, 0.410407, , 
10.78, 0.401579, , 
10.82, 0.391163, , 
10.86, 0.380860, , 
10.89, 0.371893, , 
10.93, 0.363002, , 
10.97, 0.353474, , 
11.00, 0.345136, , 
11.04, 0.336257, , 
11.08, 0.328573, , 
11.11, 0.321079, , 
11.15, 0.313203, , 
11.19, 0.305614, , 
11.22, 0.299680, , 
11.26, 0.292678, , 
11.30, 0.285789, , 
11.33, 0.279866, , 
11.37, 0.273347, , 
11.41, 0.267448, , 
11.44, 0.261831, , 
11.48, 0.255844, , 
11.52, 0.250220, , 
11.55, 0.245682, , 
11.59, 0.240280, , 
11.63, 0.234933, , 
11.66, 0.230130, , 
11.70, 0.225645, , 
11.74, 0.220907, , 
11.77, 0.216843, , 
11.81, 0.212534, , 
11.85, 0.208628, , 
11.88, 0.204824, , 
11.92, 0.200589, , 
11.96, 0.196676, , 
11.99, 0.193581, , 
12.03, 0.189975, , 
12.07, 0.186508, , 
12.10, 0.183471, , 
12.14, 0.180570, , 
12.18, 0.177277, , 
12.21, 0.174369, , 
12.25, 0.171187, , 
12.29, 0.168531, , 
12.32, 0.165983, , 
12.36, 0.162982, , 
12.40, 0.160232, , 
12.43, 0.157929, , 
12.47, 0.155272, , 
12.51, 0.152865, , 
12.54, 0.150824, , 
12.58, 0.149033, , 
12.62, 0.146926, , 
12.65, 0.145122, , 
12.69, 0.143060, , 
12.73, 0.141288, , 
12.76, 0.139765, , 
12.80, 0.137999, , 
12.84, 0.136365, , 
12.87, 0.134879, , 
12.91, 0.133213, , 
12.95, 0.131802, , 
12.98, 0.130307, , 
13.02, 0.128874, , 
13.06, 0.127337, , 
13.09, 0.126118, , 
13.13, 0.124629, , 
13.17, 0.123329, , 
13.20, 0.122100, , 
13.24, 0.120615, , 
13.28, 0.119310, , 
13.31, 0.118234, , 
13.35, 0.116999, , 
13.39, 0.115795, , 
13.42, 0.114656, , 
13.46, 0.113613, , 
13.50, 0.112356, , 
13.53, 0.111329, , 
13.57, 0.110195, , 
13.61, 0.109160, , 
13.64, 0.108125, , 
13.68, 0.106906, , 
13.72, 0.105847, , 
13.75, 0.104953, , 
13.79, 0.103843, , 
13.83, 0.102834, , 
13.86, 0.101813, , 
13.90, 0.100915, , 
13.94, 0.099878, , 
13.97, 0.099117, , 
14.01, 0.098288, , 
14.05, 0.097458, , 
14.08, 0.096587, , 
14.12, 0.095557, , 
14.16, 0.094740, , 
14.19, 0.094054, , 
14.23, 0.093245, , 
14.27, 0.092486, , 
14.30, 0.091675, , 
14.34, 0.091031, , 
14.38, 0.090164, , 
14.41, 0.089478, , 
14.45, 0.088711, , 
14.49, 0.088071, , 
14.52, 0.087559, , 
14.56, 0.086814, , 
14.60, 0.086178, , 
14.63, 0.085686, , 
14.67, 0.085129, , 
14.71, 0.084625, , 
14.74, 0.084058, , 
14.78, 0.083586, , 
14.82, 0.083075, , 
14.85, 0.082617, , 
14.89, 0.082066, , 
14.93, 0.081556, , 
14.96, 0.081267, , 
15.00, 0.080793, , 
15.04, 0.080409, , 
15.07, 0.080068, , 
15.11, 0.079667, , 
15.15, 0.079267, , 
15.18, 0.078920, , 
15.22, 0.078664, , 
15.26, 0.078317, , 
15.29, 0.077988, , 
15.33, 0.077742, , 
15.37, 0.077530, , 
15.40, 0.077367, , 
15.44, 0.077096, , 
15.48, 0.076870, , 
15.51, 0.076670, , 
15.55, 0.076469, , 
15.59, 0.076281, , 
15.62, 0.076105, , 
15.66, 0.075900, , 
15.70, 0.075657, , 
15.73, 0.075417, , 
15.77, 0.075197, , 
15.81, 0.074947, , 
15.84, 0.074840, , 
15.88, 0.074648, , 
15.92, 0.074548, , 
15.95, 0.074336, , 
15.99, 0.074180, , 
16.03, 0.074152, , 
16.06, 0.073908, , 
16.10, 0.073724, , 
16.14, 0.073601, , 
16.17, 0.073573, , 
16.21, 0.073533, , 
16.25, 0.073339, , 
16.28, 0.073220, , 
16.32, 0.073073, , 
16.36, 0.073099, , 
16.39, 0.073058, , 
16.43, 0.073030, , 
16.47, 0.073091, , 
16.50, 0.073067, , 
16.54, 0.073113, , 
16.58, 0.073048, , 
16.61, 0.073097, , 
16.65, 0.073097, , 
16.69, 0.073028, , 
16.72, 0.073101, , 
16.76, 0.073167, , 
16.80, 0.073422, , 
16.83, 0.073518, , 
16.87, 0.073549, , 
16.91, 0.073577, , 
16.94, 0.073597, , 
16.98, 0.073874, , 
17.02, 0.073964, , 
17.05, 0.074033, , 
17.09, 0.074079, , 
17.13, 0.074186, , 
17.16, 0.074398, , 
17.20, 0.074479, , 
17.24, 0.074590, , 
17.27, 0.074602, , 
17.31, 0.074745, , 
17.35, 0.074994, , 
17.38, 0.074994, , 
17.42, 0.075218, , 
17.46, 0.075395, , 
17.49, 0.075667, , 
17.53, 0.075948, , 
17.57, 0.076182, , 
17.60, 0.076479, , 
17.64, 0.076836, , 
17.68, 0.077250, , 
17.71, 0.077647, , 
17.75, 0.078133, , 
17.79, 0.078688, , 
17.82, 0.079237, , 
17.86, 0.080066, , 
17.90, 0.080720, , 
17.93, 0.081473, , 
17.97, 0.082542, , 
18.01, 0.083541, , 
18.04, 0.084423, , 
18.08, 0.085569, , 
18.12, 0.086885, , 
18.15, 0.088106, , 
18.19, 0.089518, , 
18.23, 0.091130, , 
18.26, 0.092521, , 
18.30, 0.094210, , 
18.34, 0.095650, , 
18.37, 0.097232, , 
18.41, 0.099042, , 
18.45, 0.101046, , 
18.48, 0.102783, , 
18.52, 0.104537, , 
18.56, 0.106502, , 
18.59, 0.108155, , 
18.63, 0.110268, , 
18.67, 0.112108, , 
18.70, 0.113712, , 
18.74, 0.115734, , 
18.78, 0.117312, , 
18.81, 0.118880, , 
18.85, 0.120825, , 
18.89, 0.122480, , 
18.92, 0.123880, , 
18.96, 0.125198, , 
19.00, 0.126645, , 
19.03, 0.127764, , 
19.07, 0.129044, , 
19.11, 0.130123, , 
19.14, 0.130935, , 
19.18, 0.131863, , 
19.22, 0.132490, , 
19.25, 0.132989, , 
19.29, 0.133612, , 
19.33, 0.134074, , 
19.36, 0.134385, , 
19.40, 0.134427, , 
19.44, 0.134544, , 
19.47, 0.134506, , 
19.51, 0.134498, , 
19.55, 0.134559, , 
19.58, 0.134385, , 
19.62, 0.134127, , 
19.66, 0.133715, , 
19.69, 0.133459, , 
19.73, 0.132971, , 
19.77, 0.132311, , 
19.80, 0.131681, , 
19.84, 0.131056, , 
19.88, 0.130511, , 
19.91, 0.129863, , 
19.95, 0.128939, , 
19.99, 0.128075, , 
20.02, 0.127131, , 
20.06, 0.126316, , 
20.10, 0.125496, , 
20.13, 0.124818, , 
20.17, 0.123939, , 
20.21, 0.122960, , 
20.24, 0.122121, , 
20.28, 0.121307, , 
20.32, 0.120520, , 
20.35, 0.119628, , 
20.39, 0.118622, , 
20.43, 0.117831, , 
20.46, 0.117391, , 
20.50, 0.116299, , 
20.54, 0.115381, , 
20.57, 0.114747, , 
20.61, 0.113946, , 
20.65, 0.113131, , 
20.68, 0.112415, , 
20.72, 0.111906, , 
20.76, 0.110879, , 
20.79, 0.110124, , 
20.83, 0.109317, , 
20.87, 0.108676, , 
20.90, 0.108070, , 
20.94, 0.107511, , 
20.98, 0.107148, , 
21.01, 0.106399, , 
21.05, 0.105717, , 
21.09, 0.105066, , 
21.12, 0.104593, , 
21.16, 0.103970, , 
21.20, 0.103457, , 
21.23, 0.103314, , 
21.27, 0.102561, , 
21.31, 0.101972, , 
21.34, 0.101476, , 
21.38, 0.100977, , 
21.42, 0.100471, , 
21.45, 0.100106, , 
21.49, 0.099904, , 
21.53, 0.099333, , 
21.56, 0.098984, , 
21.60, 0.098546, , 
21.64, 0.098048, , 
21.67, 0.097585, , 
21.71, 0.097255, , 
21.75, 0.097031, , 
21.78, 0.096667, , 
21.82, 0.096296, , 
21.86, 0.095866, , 
21.89, 0.095699, , 
21.93, 0.095390, , 
21.97, 0.095021, , 
22.00, 0.094728, , 
22.04, 0.094403, , 
22.08, 0.094155, , 
22.11, 0.093828, , 
22.15, 0.093521, , 
22.19, 0.093263, , 
22.22, 0.093051, , 
22.26, 0.092866, , 
22.30, 0.092500, , 
22.33, 0.092224, , 
22.37, 0.092032, , 
22.41, 0.091833, , 
22.44, 0.091647, , 
22.48, 0.091338, , 
22.52, 0.091171, , 
22.55, 0.090880, , 
22.59, 0.090646, , 
22.63, 0.090353, , 
22.66, 0.090180, , 
22.70, 0.090039, , 
22.74, 0.089722, , 
22.77, 0.089528, , 
22.81, 0.089252, , 
22.85, 0.089119, , 
22.88, 0.089040, , 
22.92, 0.088761, , 
22.96, 0.088650, , 
22.99, 0.088441, , 
23.03, 0.088227, , 
23.07, 0.088097, , 
23.10, 0.087991, , 
23.14, 0.087811, , 
23.18, 0.087589, , 
23.21, 0.087472, , 
23.25, 0.087260, , 
23.29, 0.087149, , 
23.32, 0.087074, , 
23.36, 0.086798, , 
23.40, 0.086729, , 
23.43, 0.086610, , 
23.47, 0.086515, , 
23.51, 0.086283, , 
23.54, 0.086148, , 
23.58, 0.086156, , 
23.62, 0.086017, , 
23.65, 0.085906, , 
23.69, 0.085696, , 
23.73, 0.085593, , 
23.76, 0.085597, , 
23.80, 0.085521, , 
23.84, 0.085565, , 
23.87, 0.085531, , 
23.91, 0.085579, , 
23.95, 0.085537, , 
23.98, 0.085537, , 
24.02, 0.085624, , 
24.06, 0.085716, , 
24.09, 0.085967, , 
24.13, 0.086088, , 
24.17, 0.086344, , 
24.20, 0.086630, , 
24.24, 0.086955, , 
24.28, 0.087397, , 
24.31, 0.087815, , 
24.35, 0.088545, , 
24.39, 0.089304, , 
24.42, 0.089984, , 
24.46, 0.091048, , 
24.50, 0.092293, , 
24.53, 0.093570, , 
24.57, 0.094831, , 
24.61, 0.096631, , 
24.64, 0.098395, , 
24.68, 0.100499, , 
24.72, 0.102862, , 
24.75, 0.105358, , 
24.79, 0.108405, , 
24.83, 0.111922, , 
24.86, 0.114989, , 
24.90, 0.119015, , 
24.94, 0.123650, , 
24.97, 0.128075, , 
25.01, 0.132486, , 
25.05, 0.138251, , 
25.08, 0.143699, , 
25.12, 0.149695, , 
25.16, 0.155901, , 
25.19, 0.162082, , 
25.23, 0.168963, , 
25.27, 0.176490, , 
25.30, 0.182636, , 
25.34, 0.190122, , 
25.38, 0.198186, , 
25.41, 0.205373, , 
25.45, 0.212119, , 
25.49, 0.220261, , 
25.52, 0.227239, , 
25.56, 0.234610, , 
25.60, 0.241801, , 
25.63, 0.248470, , 
25.67, 0.255355, , 
25.71, 0.262254, , 
25.74, 0.267630, , 
25.78, 0.273887, , 
25.82, 0.280242, , 
25.85, 0.285585, , 
25.89, 0.290280, , 
25.93, 0.295640, , 
25.96, 0.300134, , 
26.00, 0.304593, , 
26.04, 0.308758, , 
26.07, 0.312436, , 
26.11, 0.316123, , 
26.15, 0.319487, , 
26.18, 0.322433, , 
26.22, 0.324949, , 
26.26, 0.327562, , 
26.29, 0.329625, , 
26.33, 0.331453, , 
26.37, 0.332829, , 
26.40, 0.334151, , 
26.44, 0.335335, , 
26.48, 0.336233, , 
26.51, 0.336647, , 
26.55, 0.337240, , 
26.59, 0.337654, , 
26.62, 0.337948, , 
26.66, 0.338017, , 
26.70, 0.337873, , 
26.73, 0.337748, , 
26.77, 0.337415, , 
26.81, 0.337167, , 
26.84, 0.336713, , 
26.88, 0.336203, , 
26.92, 0.335650, , 
26.95, 0.335040, , 
26.99, 0.334443, , 
27.03, 0.333793, , 
27.06, 0.333176, , 
27.10, 0.332488, , 
27.14, 0.331665, , 
27.17, 0.330989, , 
27.21, 0.330091, , 
27.25, 0.329195, , 
27.28, 0.328222, , 
27.32, 0.327385, , 
27.36, 0.326604, , 
27.39, 0.325928, , 
27.43, 0.325064, , 
27.47, 0.323995, , 
27.50, 0.323153, , 
27.54, 0.322405, , 
27.58, 0.321541, , 
27.61, 0.320827, , 
27.65, 0.319765, , 
27.69, 0.318914, , 
27.72, 0.318022, , 
27.76, 0.317148, , 
27.80, 0.316167, , 
27.83, 0.315370, , 
27.87, 0.314444, , 
27.91, 0.313415, , 
27.94, 0.312531, , 
27.98, 0.311587, , 
28.02, 0.310475, , 
28.05, 0.309527, , 
28.09, 0.308441, , 
28.13, 0.307477, , 
28.16, 0.306486, , 
28.20, 0.305414, , 
28.24, 0.304194, , 
28.27, 0.303193, , 
28.31, 0.302099, , 
28.35, 0.300761, , 
28.38, 0.299659, , 
28.42, 0.298527, , 
28.46, 0.297145, , 
28.49, 0.296045, , 
28.53, 0.294740, , 
28.57, 0.293547, , 
28.60, 0.292329, , 
28.64, 0.291047, , 
28.68, 0.289524, , 
28.71, 0.288337, , 
28.75, 0.287058, , 
28.79, 0.285510, , 
28.82, 0.284213, , 
28.86, 0.282966, , 
28.90, 0.281460, , 
28.93, 0.280092, , 
28.97, 0.278486, , 
29.01, 0.277088, , 
29.04, 0.275756, , 
29.08, 0.274396, , 
29.12, 0.272796, , 
29.15, 0.271452, , 
29.19, 0.269983, , 
29.23, 0.268286, , 
29.26, 0.266819, , 
29.30, 0.265382, , 
29.34, 0.263715, , 
29.37, 0.262317, , 
29.41, 0.260672, , 
29.45, 0.259280, , 
29.48, 0.257755, , 
29.52, 0.256201, , 
29.56, 0.254704, , 
29.59, 0.253390, , 
29.63, 0.252139, , 
29.67, 0.250670, , 
29.70, 0.249604, , 
29.74, 0.248277, , 
29.78, 0.247203, , 
29.81, 0.246160, , 
29.85, 0.245008, , 
29.89, 0.243973, , 
29.92, 0.243111, , 
29.96, 0.242145, , 
30.00, 0.241460, , 
30.03, 0.240819, , 
30.07, 0.240296, , 
30.11, 0.239767, , 
30.14, 0.239505, , 
30.18, 0.239275, , 
30.22, 0.239251, , 
30.25, 0.239483, , 
30.29, 0.239842, , 
30.33, 0.240581, , 
30.36, 0.241243, , 
30.40, 0.242447, , 
30.44, 0.244076, , 
30.47, 0.245880, , 
30.51, 0.248158, , 
30.55, 0.251314, , 
30.58, 0.254750, , 
30.62, 0.259010, , 
30.66, 0.263495, , 
30.69, 0.269250, , 
30.73, 0.276115, , 
30.77, 0.284122, , 
30.80, 0.291005, , 
30.84, 0.301368, , 
30.88, 0.312580, , 
30.91, 0.323759, , 
30.95, 0.335333, , 
30.99, 0.350118, , 
31.02, 0.364120, , 
31.06, 0.380355, , 
31.10, 0.395051, , 
31.13, 0.411717, , 
31.17, 0.429759, , 
31.21, 0.448139, , 
31.24, 0.462373, , 
31.28, 0.481496, , 
31.32, 0.499445, , 
31.35, 0.515457, , 
31.39, 0.530417, , 
31.43, 0.547355, , 
31.46, 0.561573, , 
31.50, 0.575698, , 
31.54, 0.588786, , 
31.57, 0.600578, , 
31.61, 0.611269, , 
31.65, 0.623521, , 
31.68, 0.631651, , 
31.72, 0.640477, , 
31.76, 0.649081, , 
31.79, 0.655677, , 
31.83, 0.661305, , 
31.87, 0.667209, , 
31.90, 0.671873, , 
31.94, 0.676052, , 
31.98, 0.679512, , 
32.01, 0.682394, , 
32.05, 0.684674, , 
32.09, 0.686662, , 
32.12, 0.687765, , 
32.16, 0.688756, , 
32.20, 0.689315, , 
32.23, 0.689317, , 
32.27, 0.689103, , 
32.31, 0.688298, , 
32.34, 0.687366, , 
32.38, 0.686038, , 
32.42, 0.684535, , 
32.45, 0.682864, , 
32.49, 0.680778, , 
32.53, 0.678419, , 
32.56, 0.676324, , 
32.60, 0.673723, , 
32.64, 0.670674, , 
32.67, 0.667722, , 
32.71, 0.664770, , 
32.75, 0.661057, , 
32.78, 0.657558, , 
32.82, 0.653799, , 
32.86, 0.649543, , 
32.89, 0.646085, , 
32.93, 0.641865, , 
32.97, 0.637254, , 
33.00, 0.632989, , 
33.04, 0.629032, , 
33.08, 0.624144, , 
33.11, 0.619592, , 
33.15, 0.614695, , 
33.19, 0.610241, , 
33.22, 0.605421, , 
33.26, 0.600213, , 
33.30, 0.595332, , 
33.33, 0.590610, , 
33.37, 0.584958, , 
33.41, 0.579554, , 
33.44, 0.574531, , 
33.48, 0.569035, , 
33.52, 0.563324, , 
33.55, 0.558370, , 
33.59, 0.552660, , 
33.63, 0.547678, , 
33.66, 0.542920, , 
33.70, 0.537286, , 
33.74, 0.532003, , 
33.77, 0.528048, , 
33.81, 0.522685, , 
33.85, 0.517723, , 
33.88, 0.513265, , 
33.92, 0.509248, , 
33.96, 0.504480, , 
33.99, 0.500331, , 
34.03, 0.495831, , 
34.07, 0.491937, , 
34.10, 0.487943, , 
34.14, 0.483819, , 
34.18, 0.479769, , 
34.21, 0.476674, , 
34.25, 0.472420, , 
34.29, 0.468445, , 
34.32, 0.464792, , 
34.36, 0.461487, , 
34.40, 0.457663, , 
34.43, 0.454344, , 
34.47, 0.450831, , 
34.51, 0.447701, , 
34.54, 0.444340, , 
34.58, 0.440843, , 
34.62, 0.437323, , 
34.65, 0.434674, , 
34.69, 0.430983, , 
34.73, 0.427575, , 
34.76, 0.424413, , 
34.80, 0.421419, , 
34.84, 0.417920, , 
34.87, 0.414903, , 
34.91, 0.411820, , 
34.95, 0.408726, , 
34.98, 0.405869, , 
35.02, 0.402735, , 
35.06, 0.399406, , 
35.09, 0.396910, , 
35.13, 0.393506, , 
35.17, 0.390511, , 
35.20, 0.387708, , 
35.24, 0.385021, , 
35.28, 0.381845, , 
35.31, 0.379072, , 
35.35, 0.376770, , 
35.39, 0.373493, , 
35.42, 0.370944, , 
35.46, 0.368111, , 
35.50, 0.365405, , 
35.53, 0.363030, , 
35.57, 0.360252, , 
35.61, 0.357713, , 
35.64, 0.355401, , 
35.68, 0.352743, , 
35.72, 0.350067, , 
35.75, 0.347725, , 
35.79, 0.345057, , 
35.83, 0.342650, , 
35.86, 0.340721, , 
35.90, 0.337712, , 
35.94, 0.335234, , 
35.97, 0.333238, , 
36.01, 0.330825, , 
36.05, 0.328331, , 
36.08, 0.326168, , 
36.12, 0.324719, , 
36.16, 0.321484, , 
36.19, 0.319291, , 
36.23, 0.317001, , 
36.27, 0.314920, , 
36.30, 0.312941, , 
36.34, 0.310822, , 
36.38, 0.308625, , 
36.41, 0.306815, , 
36.45, 0.304593, , 
36.49, 0.302573, , 
36.52, 0.300604, , 
36.56, 0.298624, , 
36.60, 0.296861, , 
36.63, 0.294925, , 
36.67, 0.292936, , 
36.71, 0.291081, , 
36.74, 0.289443, , 
36.78, 0.287399, , 
36.82, 0.285464, , 
36.85, 0.283785, , 
36.89, 0.281951, , 
36.93, 0.280133, , 
36.96, 0.278438, , 
37.00, 0.276589, , 
37.04, 0.274957, , 
37.07, 0.273302, , 
37.11, 0.271474, , 
37.15, 0.269870, , 
37.18, 0.268479, , 
37.22, 0.266738, , 
37.26, 0.264924, , 
37.29, 0.263399, , 
37.33, 0.261734, , 
37.37, 0.260148, , 
37.40, 0.258713, , 
37.44, 0.257089, , 
37.48, 0.255608, , 
37.51, 0.254185, , 
37.55, 0.252540, , 
37.59, 0.251051, , 
37.62, 0.250038, , 
37.66, 0.248418, , 
37.70, 0.246878, , 
37.73, 0.245607, , 
37.77, 0.244344, , 
37.81, 0.242827, , 
37.84, 0.241464, , 
37.88, 0.240062, , 
37.92, 0.238787, , 
37.95, 0.237471, , 
37.99, 0.236097, , 
38.03, 0.234638, , 
38.06, 0.233613, , 
38.10, 0.232162, , 
38.14, 0.230847, , 
38.17, 0.229569, , 
38.21, 0.228320, , 
38.25, 0.226934, , 
38.28, 0.225661, , 
38.32, 0.224365, , 
38.36, 0.223156, , 
38.39, 0.221849, , 
38.43, 0.220541, , 
38.47, 0.219212, , 
38.50, 0.218126, , 
38.54, 0.216798, , 
38.58, 0.215586, , 
38.61, 0.214280, , 
38.65, 0.212997, , 
38.69, 0.211725, , 
38.72, 0.210432, , 
38.76, 0.209124, , 
38.80, 0.207908, , 
38.83, 0.206707, , 
38.87, 0.205385, , 
38.91, 0.204049, , 
38.94, 0.203012, , 
38.98, 0.201755, , 
39.02, 0.200617, , 
39.05, 0.199499, , 
39.09, 0.198349, , 
39.13, 0.197229, , 
39.16, 0.196051, , 
39.20, 0.194955, , 
39.24, 0.193964, , 
39.27, 0.192871, , 
39.31, 0.191712, , 
39.35, 0.190655, , 
39.38, 0.189741, , 
39.42, 0.188583, , 
39.46, 0.187481, , 
39.49, 0.186466, , 
39.53, 0.185404, , 
39.57, 0.184383, , 
39.60, 0.183441, , 
39.64, 0.182325, , 
39.68, 0.181349, , 
39.71, 0.180374, , 
39.75, 0.179401, , 
39.79, 0.178443, , 
39.82, 0.177698, , 
39.86, 0.176635, , 
39.90, 0.175733, , 
39.93, 0.174885, , 
39.97, 0.173903, , 
40.01, 0.172995, , 
40.04, 0.172186, , 
40.08, 0.171243, , 
40.12, 0.170303, , 
40.15, 0.169480, , 
40.19, 0.168612, , 
40.23, 0.167750, , 
40.26, 0.167078, , 
40.30, 0.166310, , 
40.34, 0.165436, , 
40.37, 0.164558, , 
40.41, 0.163618, , 
40.45, 0.162792, , 
40.48, 0.162003, , 
40.52, 0.161061, , 
40.56, 0.160121, , 
40.59, 0.159352, , 
40.63, 0.158498, , 
40.67, 0.157606, , 
40.70, 0.156977, , 
40.74, 0.156129, , 
40.78, 0.155367, , 
40.81, 0.154689, , 
40.85, 0.153829, , 
40.89, 0.153101, , 
40.92, 0.152314, , 
40.96, 0.151505, , 
41.00, 0.150667, , 
41.03, 0.150074, , 
41.07, 0.149321, , 
41.11, 0.148635, , 
41.14, 0.148115, , 
41.18, 0.147437, , 
41.22, 0.146648, , 
41.25, 0.145953, , 
41.29, 0.145096, , 
41.33, 0.144456, , 
41.36, 0.143695, , 
41.40, 0.142908, , 
41.44, 0.142057, , 
41.47, 0.141452, , 
41.51, 0.140737, , 
41.55, 0.140081, , 
41.58, 0.139537, , 
41.62, 0.138851, , 
41.66, 0.138045, , 
41.69, 0.137293, , 
41.73, 0.136488, , 
41.77, 0.135864, , 
41.80, 0.134996, , 
41.84, 0.134401, , 
41.88, 0.133788, , 
41.91, 0.133166, , 
41.95, 0.132418, , 
41.99, 0.131697, , 
42.02, 0.131193, , 
42.06, 0.130573, , 
42.10, 0.129994, , 
42.13, 0.129463, , 
42.17, 0.128828, , 
42.21, 0.128336, , 
42.24, 0.127722, , 
42.28, 0.127147, , 
42.32, 0.126507, , 
42.35, 0.126061, , 
42.39, 0.125398, , 
42.43, 0.124788, , 
42.46, 0.124383, , 
42.50, 0.123890, , 
42.54, 0.123230, , 
42.57, 0.122696, , 
42.61, 0.122129, , 
42.65, 0.121671, , 
42.68, 0.121140, , 
42.72, 0.120698, , 
42.76, 0.120193, , 
42.79, 0.119790, , 
42.83, 0.119277, , 
42.87, 0.118672, , 
42.90, 0.118248, , 
42.94, 0.117822, , 
42.98, 0.117304, , 
43.01, 0.116860, , 
43.05, 0.116408, , 
43.09, 0.116033, , 
43.12, 0.115443, , 
43.16, 0.115044, , 
43.20, 0.114570, , 
43.23, 0.114217, , 
43.27, 0.113805, , 
43.31, 0.113248, , 
43.34, 0.112869, , 
43.38, 0.112497, , 
43.42, 0.112059, , 
43.45, 0.111622, , 
43.49, 0.111125, , 
43.53, 0.110752, , 
43.56, 0.110336, , 
43.60, 0.109898, , 
43.64, 0.109343, , 
43.67, 0.108900, , 
43.71, 0.108448, , 
43.75, 0.107858, , 
43.78, 0.107439, , 
43.82, 0.107025, , 
43.86, 0.106500, , 
43.89, 0.106040, , 
43.93, 0.105485, , 
43.97, 0.105009, , 
44.00, 0.104434, , 
44.04, 0.104010, , 
44.08, 0.103518, , 
44.11, 0.103118, , 
44.15, 0.102678, , 
44.19, 0.102093, , 
44.22, 0.101726, , 
44.26, 0.101308, , 
44.30, 0.100883, , 
44.33, 0.100437, , 
44.37, 0.099962, , 
44.41, 0.099541, , 
44.44, 0.099048, , 
44.48, 0.098645, , 
44.52, 0.098179, , 
44.55, 0.097757, , 
44.59, 0.097400, , 
44.63, 0.096794, , 
44.66, 0.096447, , 
44.70, 0.095981, , 
44.74, 0.095691, , 
44.77, 0.095305, , 
44.81, 0.094851, , 
44.85, 0.094444, , 
44.88, 0.094137, , 
44.92, 0.093756, , 
44.96, 0.093330, , 
44.99, 0.092918, , 
45.03, 0.092613, , 
45.07, 0.092196, , 
45.10, 0.091960, , 
45.14, 0.091651, , 
45.18, 0.091255, , 
45.21, 0.090910, , 
45.25, 0.090491, , 
45.29, 0.090138, , 
45.32, 0.089722, , 
45.36, 0.089431, , 
45.40, 0.089147, , 
45.43, 0.088824, , 
45.47, 0.088628, , 
45.51, 0.088311, , 
45.54, 0.088009, , 
45.58, 0.087678, , 
45.62, 0.087444, , 
45.65, 0.087196, , 
45.69, 0.086873, , 
45.73, 0.086576, , 
45.76, 0.086304, , 
45.80, 0.085989, , 
45.84, 0.085712, , 
45.87, 0.085440, , 
45.91, 0.085196, , 
45.95, 0.084764, , 
45.98, 0.084574, , 
46.02, 0.084288, , 
46.06, 0.084046, , 
46.09, 0.083743, , 
46.13, 0.083428, , 
46.17, 0.083144, , 
46.20, 0.082833, , 
46.24, 0.082629, , 
46.28, 0.082292, , 
46.31, 0.081965, , 
46.35, 0.081772, , 
46.39, 0.081386, , 
46.42, 0.081182, , 
46.46, 0.080928, , 
46.50, 0.080688, , 
46.53, 0.080418, , 
46.57, 0.080133, , 
46.61, 0.079913, , 
46.64, 0.079655, , 
46.68, 0.079433, , 
46.72, 0.079128, , 
46.75, 0.078834, , 
46.79, 0.078640, , 
46.83, 0.078275, , 
46.86, 0.078119, , 
46.90, 0.077849, , 
46.94, 0.077566, , 
46.97, 0.077385, , 
47.01, 0.077090, , 
47.05, 0.076822, , 
47.08, 0.076592, , 
47.12, 0.076378, , 
47.16, 0.076154, , 
47.19, 0.075924, , 
47.23, 0.075766, , 
47.27, 0.075468, , 
47.30, 0.075282, , 
47.34, 0.075090, , 
47.38, 0.074820, , 
47.41, 0.074669, , 
47.45, 0.074544, , 
47.49, 0.074437, , 
47.52, 0.074199, , 
47.56, 0.074047, , 
47.60, 0.073837, , 
47.63, 0.073642, , 
47.67, 0.073498, , 
47.71, 0.073258, , 
47.74, 0.073169, , 
47.78, 0.072953, , 
47.82, 0.072725, , 
47.85, 0.072580, , 
47.89, 0.072334, , 
47.93, 0.072251, , 
47.96, 0.072062, , 
48.00, 0.071878, , 
48.04, 0.071690, , 
48.07, 0.071460, , 
48.11, 0.071244, , 
48.15, 0.071059, , 
48.18, 0.070867, , 
48.22, 0.070693, , 
48.26, 0.070605, , 
48.29, 0.070544, , 
48.33, 0.070252, , 
48.37, 0.070120, , 
48.40, 0.069890, , 
48.44, 0.069745, , 
48.48, 0.069610, , 
48.51, 0.069453, , 
48.55, 0.069301, , 
48.59, 0.069126, , 
48.62, 0.068912, , 
48.66, 0.068704, , 
48.70, 0.068577, , 
48.73, 0.068494, , 
48.77, 0.068212, , 
48.81, 0.068107, , 
48.84, 0.067929, , 
48.88, 0.067774, , 
48.92, 0.067626, , 
48.95, 0.067568, , 
48.99, 0.067580, , 
49.03, 0.067386, , 
49.06, 0.067195, , 
49.10, 0.067065, , 
49.14, 0.067003, , 
49.17, 0.067027, , 
49.21, 0.067057, , 
49.25, 0.067114, , 
49.28, 0.067086, , 
49.32, 0.067073, , 
49.36, 0.067102, , 
49.39, 0.067025, , 
49.43, 0.067120, , 
49.47, 0.067233, , 
49.50, 0.067435, , 
49.54, 0.067523, , 
49.58, 0.067642, , 
49.61, 0.067869, , 
49.65, 0.067986, , 
49.69, 0.068256, , 
49.72, 0.068403, , 
49.76, 0.068635, , 
49.80, 0.068902, , 
49.83, 0.069136, , 
49.87, 0.069442, , 
49.91, 0.069660, , 
49.94, 0.069913, , 
49.98, 0.070163, , 
50.02, 0.070449, , 
50.05, 0.070698, , 
50.09, 0.070889, , 
50.13, 0.071196, , 
50.16, 0.071365, , 
50.20, 0.071583, , 
50.24, 0.071866, , 
50.27, 0.072015, , 
50.31, 0.072312, , 
50.35, 0.072427, , 
50.38, 0.072534, , 
50.42, 0.072546, , 
50.46, 0.072514, , 
50.49, 0.072540, , 
50.53, 0.072504, , 
50.57, 0.072574, , 
50.60, 0.072508, , 
50.64, 0.072532, , 
50.68, 0.072558, , 
50.71, 0.072504, , 
50.75, 0.072465, , 
50.79, 0.072253, , 
50.82, 0.072142, , 
50.86, 0.072043, , 
50.90, 0.071951, , 
50.93, 0.071848, , 
50.97, 0.071543, , 
51.01, 0.071327, , 
51.04, 0.071111, , 
51.08, 0.070913, , 
51.12, 0.070762, , 
51.15, 0.070457, , 
51.19, 0.070254, , 
51.23, 0.069935, , 
51.26, 0.069763, , 
51.30, 0.069483, , 
51.34, 0.069188, , 
51.37, 0.069085, , 
51.41, 0.068849, , 
51.45, 0.068609, , 
51.48, 0.068359, , 
51.52, 0.068175, , 
51.56, 0.068036, , 
51.59, 0.067737, , 
51.63, 0.067574, , 
51.67, 0.067233, , 
51.70, 0.067154, , 
51.74, 0.066962, , 
51.78, 0.066724, , 
51.81, 0.066615, , 
51.85, 0.066375, , 
51.89, 0.066224, , 
51.92, 0.066014, , 
51.96, 0.065748, , 
52.00, 0.065659, , 
52.03, 0.065352, , 
52.07, 0.065197, , 
52.11, 0.065052, , 
52.14, 0.064941, , 
52.18, 0.064696, , 
52.22, 0.064559, , 
52.25, 0.064478, , 
52.29, 0.064250, , 
52.33, 0.064146, , 
52.36, 0.063982, , 
52.40, 0.063758, , 
52.44, 0.063677, , 
52.47, 0.063538, , 
52.51, 0.063411, , 
52.55, 0.063213, , 
52.58, 0.063094, , 
52.62, 0.062999, , 
52.66, 0.062800, , 
52.69, 0.062691, , 
52.73, 0.062495, , 
52.77, 0.062396, , 
52.80, 0.062178, , 
52.84, 0.062077, , 
52.88, 0.062033, , 
52.91, 0.061873, , 
52.95, 0.061662, , 
52.99, 0.061530, , 
53.02, 0.061492, , 
53.06, 0.061296, , 
53.10, 0.061107, , 
53.13, 0.061091, , 
53.17, 0.061022, , 
53.21, 0.060887, , 
53.24, 0.060685, , 
53.28, 0.060582, , 
53.32, 0.060435, , 
53.35, 0.060168, , 
53.39, 0.060140, , 
53.43, 0.060045, , 
53.46, 0.059916, , 
53.50, 0.059718, , 
53.54, 0.059583, , 
53.57, 0.059575, , 
53.61, 0.059525, , 
53.65, 0.059438, , 
53.68, 0.059216, , 
53.72, 0.059127, , 
53.76, 0.059085, , 
53.79, 0.059006, , 
53.83, 0.058913, , 
53.87, 0.058663, , 
53.90, 0.058645, , 
53.94, 0.058605, , 
53.98, 0.058562, , 
54.01, 0.058451, , 
54.05, 0.058235, , 
54.09, 0.058128, , 
54.12, 0.058058, , 
54.16, 0.058072, , 
54.20, 0.057973, , 
54.23, 0.057757, , 
54.27, 0.057632, , 
54.31, 0.057537, , 
54.34, 0.057545, , 
54.38, 0.057511, , 
54.42, 0.057525, , 
54.45, 0.057586, , 
54.49, 0.057537, , 
54.53, 0.057567, , 
54.56, 0.057563, , 
54.60, 0.057577, , 
54.64, 0.057670, , 
54.67, 0.057822, , 
54.71, 0.057999, , 
54.75, 0.058003, , 
54.78, 0.058175, , 
54.82, 0.058348, , 
54.86, 0.058635, , 
54.89, 0.058865, , 
54.93, 0.059002, , 
54.97, 0.059260, , 
55.00, 0.059527, , 
55.04, 0.059860, , 
55.08, 0.060124, , 
55.11, 0.060328, , 
55.15, 0.060774, , 
55.19, 0.060994, , 
55.22, 0.061327, , 
55.26, 0.061502, , 
55.30, 0.061837, , 
55.33, 0.062192, , 
55.37, 0.062384, , 
55.41, 0.062555, , 
55.44, 0.062792, , 
55.48, 0.063104, , 
55.52, 0.063322, , 
55.55, 0.063423, , 
55.59, 0.063546, , 
55.63, 0.063641, , 
55.66, 0.063889, , 
55.70, 0.063956, , 
55.74, 0.064022, , 
55.77, 0.064063, , 
55.81, 0.064010, , 
55.85, 0.064037, , 
55.88, 0.063982, , 
55.92, 0.064045, , 
55.96, 0.064024, , 
55.99, 0.064012, , 
56.03, 0.064033, , 
56.07, 0.063817, , 
56.10, 0.063720, , 
56.14, 0.063629, , 
56.18, 0.063548, , 
56.21, 0.063496, , 
56.25, 0.063240, , 
56.29, 0.063163, , 
56.32, 0.063042, , 
56.36, 0.063012, , 
56.40, 0.062981, , 
56.43, 0.062846, , 
56.47, 0.062673, , 
56.51, 0.062535, , 
56.54, 0.062487, , 
56.58, 0.062287, , 
56.62, 0.062142, , 
56.65, 0.062091, , 
56.69, 0.062041, , 
56.73, 0.062069, , 
56.76, 0.061855, , 
56.80, 0.061639, , 
56.84, 0.061563, , 
56.87, 0.061524, , 
56.91, 0.061545, , 
56.95, 0.061506, , 
56.98, 0.061530, , 
57.02, 0.061516, , 
57.06, 0.061288, , 
57.09, 0.061179, , 
57.13, 0.061022, , 
57.17, 0.061000, , 
57.20, 0.060782, , 
57.24, 0.060574, , 
57.28, 0.060497, , 
57.31, 0.060491, , 
57.35, 0.060471, , 
57.39, 0.060170, , 
57.42, 0.060100, , 
57.46, 0.060021, , 
57.50, 0.060001, , 
57.53, 0.059981, , 
57.57, 0.059710, , 
57.61, 0.059650, , 
57.64, 0.059555, , 
57.68, 0.059543, , 
57.72, 0.059482, , 
57.75, 0.059323, , 
57.79, 0.059182, , 
57.83, 0.059034, , 
57.86, 0.058982, , 
57.90, 0.058806, , 
57.94, 0.058592, , 
57.97, 0.058564, , 
58.01, 0.058506, , 
58.05, 0.058544, , 
58.08, 0.058455, , 
58.12, 0.058189, , 
58.16, 0.058082, , 
58.19, 0.058046, , 
58.23, 0.058031, , 
58.27, 0.057745, , 
58.30, 0.057610, , 
58.34, 0.057533, , 
58.38, 0.057535, , 
58.41, 0.057573, , 
58.45, 0.057329, , 
58.49, 0.057206, , 
58.52, 0.057083, , 
58.56, 0.057049, , 
58.60, 0.057041, , 
58.63, 0.056982, , 
58.67, 0.057027, , 
58.71, 0.056922, , 
58.74, 0.056976, , 
58.78, 0.057025, , 
58.82, 0.056970, , 
58.85, 0.057016, , 
58.89, 0.056970, , 
58.93, 0.057012, , 
58.96, 0.056970, , 
59.00, 0.057010, , 
59.04, 0.057144, , 
59.07, 0.057271, , 
59.11, 0.057470, , 
59.15, 0.057503, , 
59.18, 0.057648, , 
59.22, 0.057882, , 
59.26, 0.058027, , 
59.29, 0.058231, , 
59.33, 0.058473, , 
59.37, 0.058782, , 
59.40, 0.058893, , 
59.44, 0.059099, , 
59.48, 0.059357, , 
59.51, 0.059527, , 
59.55, 0.059781, , 
59.59, 0.060003, , 
59.62, 0.060229, , 
59.66, 0.060443, , 
59.70, 0.060582, , 
59.73, 0.060873, , 
59.77, 0.060967, , 
59.81, 0.061181, , 
59.84, 0.061321, , 
59.88, 0.061484, , 
59.92, 0.061528, , 
59.95, 0.061494, , 
59.99, 0.061716, , 
60.03, 0.061908, , 
60.06, 0.062019, , 
60.10, 0.062069, , 
60.14, 0.062023, , 
60.17, 0.062075, , 
60.21, 0.061991, , 
60.25, 0.062035, , 
60.28, 0.062029, , 
60.32, 0.061926, , 
60.36, 0.061760, , 
60.39, 0.061561, , 
60.43, 0.061551, , 
60.47, 0.061490, , 
60.50, 0.061425, , 
60.54, 0.061425, , 
60.58, 0.061405, , 
60.61, 0.061474, , 
60.65, 0.061407, , 
60.69, 0.061234, , 
60.72, 0.061066, , 
60.76, 0.060974, , 
60.80, 0.060974, , 
60.83, 0.060848, , 
60.87, 0.060725, , 
60.91, 0.060582, , 
60.94, 0.060548, , 
60.98, 0.060544, , 
61.02, 0.060413, , 
61.05, 0.060306, , 
61.09, 0.060132, , 
61.13, 0.060061, , 
61.16, 0.060027, , 
61.20, 0.059954, , 
61.24, 0.059809, , 
61.27, 0.059589, , 
61.31, 0.059527, , 
61.35, 0.059504, , 
61.38, 0.059442, , 
61.42, 0.059357, , 
61.46, 0.059168, , 
61.49, 0.059107, , 
61.53, 0.059036, , 
61.57, 0.059030, , 
61.60, 0.058935, , 
61.64, 0.058713, , 
61.68, 0.058578, , 
61.71, 0.058502, , 
61.75, 0.058542, , 
61.79, 0.058471, , 
61.82, 0.058249, , 
61.86, 0.058142, , 
61.90, 0.058088, , 
61.93, 0.058098, , 
61.97, 0.058036, , 
62.01, 0.058035, , 
62.04, 0.058066, , 
62.08, 0.058005, , 
62.12, 0.058027, , 
62.15, 0.058033, , 
62.19, 0.058033, , 
62.23, 0.058035, , 
62.26, 0.058013, , 
62.30, 0.058046, , 
62.34, 0.058025, , 
62.37, 0.058025, , 
62.41, 0.058169, , 
62.45, 0.058342, , 
62.48, 0.058506, , 
62.52, 0.058526, , 
62.56, 0.058768, , 
62.59, 0.058893, , 
62.63, 0.058996, , 
62.67, 0.059168, , 
62.70, 0.059299, , 
62.74, 0.059511, , 
62.78, 0.059694, , 
62.81, 0.059856, , 
62.85, 0.060104, , 
62.89, 0.060302, , 
62.92, 0.060451, , 
62.96, 0.060493, , 
63.00, 0.060748, , 
63.03, 0.060955, , 
63.07, 0.061000, , 
63.11, 0.061187, , 
63.14, 0.061357, , 
63.18, 0.061526, , 
63.22, 0.061502, , 
63.25, 0.061528, , 
63.29, 0.061561, , 
63.33, 0.061506, , 
63.36, 0.061579, , 
63.40, 0.061512, , 
63.44, 0.061520, , 
63.47, 0.061500, , 
63.51, 0.061490, , 
63.55, 0.061538, , 
63.58, 0.061486, , 
63.62, 0.061522, , 
63.66, 0.061508, , 
63.69, 0.061496, , 
63.73, 0.061563, , 
63.77, 0.061478, , 
63.80, 0.061549, , 
63.84, 0.061541, , 
63.88, 0.061514, , 
63.91, 0.061413, , 
63.95, 0.061133, , 
63.99, 0.061066, , 
64.02, 0.060974, , 
64.06, 0.061006, , 
64.10, 0.060973, , 
64.13, 0.060871, , 
64.17, 0.060661, , 
64.21, 0.060515, , 
64.24, 0.060550, , 
64.28, 0.060519, , 
64.32, 0.060532, , 
64.35, 0.060505, , 
64.39, 0.060263, , 
64.43, 0.060140, , 
64.46, 0.060019, , 
64.50, 0.060078, , 
64.54, 0.060168, , 
64.57, 0.060291, , 
64.61, 0.060447, , 
64.65, 0.060475, , 
64.68, 0.060526, , 
64.72, 0.060554, , 
64.76, 0.060634, , 
64.79, 0.060848, , 
64.83, 0.060889, , 
64.87, 0.061000, , 
64.90, 0.061072, , 
64.94, 0.061236, , 
64.98, 0.061434, , 
65.01, 0.061456, , 
65.05, 0.061694, , 
65.09, 0.061869, , 
65.12, 0.061944, , 
65.16, 0.062015, , 
65.20, 0.062061, , 
65.23, 0.062281, , 
65.27, 0.062404, , 
65.31, 0.062493, , 
65.34, 0.062505, , 
65.38, 0.062602, , 
65.42, 0.062882, , 
65.45, 0.062880, , 
65.49, 0.062953, , 
65.53, 0.062971, , 
65.56, 0.062943, , 
65.60, 0.062989, , 
65.64, 0.062989, , 
65.67, 0.063022, , 
65.71, 0.062959, , 
65.75, 0.062977, , 
65.78, 0.063024, , 
65.82, 0.062836, , 
65.86, 0.062679, , 
65.89, 0.062539, , 
65.93, 0.062513, , 
65.97, 0.062529, , 
66.00, 0.062489, , 
66.04, 0.062545, , 
66.08, 0.062457, , 
66.11, 0.062289, , 
66.15, 0.062087, , 
66.19, 0.062027, , 
66.22, 0.062023, , 
66.26, 0.061964, , 
66.30, 0.062017, , 
66.33, 0.061976, , 
66.37, 0.061995, , 
66.41, 0.062037, , 
66.44, 0.062003, , 
66.48, 0.062077, , 
66.52, 0.062140, , 
66.55, 0.062329, , 
66.59, 0.062432, , 
66.63, 0.062445, , 
66.66, 0.062509, , 
66.70, 0.062515, , 
66.74, 0.062537, , 
66.77, 0.062509, , 
66.81, 0.062481, , 
66.85, 0.062495, , 
66.88, 0.062467, , 
66.92, 0.062574, , 
66.96, 0.062537, , 
66.99, 0.062483, , 
67.03, 0.062509, , 
67.07, 0.062465, , 
67.10, 0.062493, , 
67.14, 0.062467, , 
67.18, 0.062451, , 
67.21, 0.062416, , 
67.25, 0.062406, , 
67.29, 0.062473, , 
67.32, 0.062422, , 
67.36, 0.062501, , 
67.40, 0.062491, , 
67.43, 0.062487, , 
67.47, 0.062360, , 
67.51, 0.062112, , 
67.54, 0.062073, , 
67.58, 0.062003, , 
67.62, 0.062015, , 
67.65, 0.062029, , 
67.69, 0.061964, , 
67.73, 0.062053, , 
67.76, 0.062025, , 
67.80, 0.062047, , 
67.84, 0.062021, , 
67.87, 0.061962, , 
67.91, 0.062025, , 
67.95, 0.061898, , 
67.98, 0.061746, , 
68.02, 0.061561, , 
68.06, 0.061520, , 
68.09, 0.061551, , 
68.13, 0.061472, , 
68.17, 0.061508, , 
68.20, 0.061502, , 
68.24, 0.061553, , 
68.28, 0.061581, , 
68.31, 0.061530, , 
68.35, 0.061583, , 
68.39, 0.061500, , 
68.42, 0.061524, , 
68.46, 0.061522, , 
68.50, 0.061518, , 
68.53, 0.061401, , 
68.57, 0.061115, , 
68.61, 0.061054, , 
68.64, 0.060992, , 
68.68, 0.061020, , 
68.72, 0.061018, , 
68.75, 0.060873, , 
68.79, 0.060729, , 
68.83, 0.060576, , 
68.86, 0.060497, , 
68.90, 0.060503, , 
68.94, 0.060455, , 
68.97, 0.060312, , 
69.01, 0.060090, , 
69.05, 0.060043, , 
69.08, 0.059948, , 
69.12, 0.059797, , 
69.16, 0.059668, , 
69.19, 0.059480, , 
69.23, 0.059252, , 
69.27, 0.058931, , 
69.30, 0.058748, , 
69.34, 0.058379, , 
69.38, 0.057908, , 
69.41, 0.057648, , 
69.45, 0.057170, , 
69.49, 0.056833, , 
69.52, 0.056484, , 
69.56, 0.056006, , 
69.60, 0.055562, , 
69.63, 0.055204, , 
69.67, 0.054775, , 
69.71, 0.054306, , 
69.74, 0.053947, , 
69.78, 0.053647, , 
69.82, 0.053114, , 
69.85, 0.052831, , 
69.89, 0.052436, , 
69.93, 0.052180, , 
69.96, 0.051869, , 
70.00, 0.051558, , 
70.04, 0.051336, , 
70.07, 0.051138, , 
70.11, 0.050826, , 
70.15, 0.050612, , 
70.18, 0.050412, , 
70.22, 0.050243, , 
70.26, 0.049968, , 
70.29, 0.049778, , 
70.33, 0.049573, , 
70.37, 0.049528, , 
70.40, 0.049445, , 
70.44, 0.049143, , 
70.48, 0.049042, , 
70.51, 0.048971, , 
70.55, 0.048870, , 
70.59, 0.048652, , 
70.62, 0.048564, , 
70.66, 0.048537, , 
70.70, 0.048431, , 
70.73, 0.048307, , 
70.77, 0.048108, , 
70.81, 0.048019, , 
70.84, 0.048007, , 
70.88, 0.047934, , 
70.92, 0.047783, , 
70.95, 0.047642, , 
70.99, 0.047484, , 
71.03, 0.047506, , 
71.06, 0.047452, , 
71.10, 0.047514, , 
71.14, 0.047420, , 
71.17, 0.047238, , 
71.21, 0.047099, , 
71.25, 0.047034, , 
71.28, 0.047044, , 
71.32, 0.046962, , 
71.36, 0.046917, , 
71.39, 0.046734, , 
71.43, 0.046586, , 
71.47, 0.046546, , 
71.50, 0.046481, , 
71.54, 0.046528, , 
71.58, 0.046501, , 
71.61, 0.046481, , 
71.65, 0.046532, , 
71.69, 0.046503, , 
71.72, 0.046516, , 
71.76, 0.046245, , 
71.80, 0.046142, , 
71.83, 0.046043, , 
71.87, 0.045961, , 
71.91, 0.046021, , 
71.94, 0.045945, , 
71.98, 0.045945, , 
72.02, 0.045947, , 
72.05, 0.045908, , 
72.09, 0.045759, , 
72.13, 0.045591, , 
72.16, 0.045476, , 
72.20, 0.045422, , 
72.24, 0.045464, , 
72.27, 0.045450, , 
72.31, 0.045386, , 
72.35, 0.045428, , 
72.38, 0.045418, , 
72.42, 0.045464, , 
72.46, 0.045466, , 
72.49, 0.045482, , 
72.53, 0.045533, , 
72.57, 0.045456, , 
72.60, 0.045478, , 
72.64, 0.045472, , 
72.68, 0.045468, , 
72.71, 0.045476, , 
72.75, 0.045472, , 
72.79, 0.045513, , 
72.82, 0.045454, , 
72.86, 0.045450, , 
72.90, 0.045464, , 
72.93, 0.045452, , 
72.97, 0.045468, , 
73.01, 0.045476, , 
73.04, 0.045505, , 
73.08, 0.045509, , 
73.12, 0.045476, , 
73.15, 0.045497, , 
73.19, 0.045493, , 
73.23, 0.045529, , 
73.26, 0.045497, , 
73.30, 0.045490, , 
73.34, 0.045468, , 
73.37, 0.045436, , 
73.41, 0.045529, , 
73.45, 0.045378, , 
73.48, 0.045228, , 
73.52, 0.045061, , 
73.56, 0.044964, , 
73.59, 0.045000, , 
73.63, 0.044976, , 
73.67, 0.044996, , 
73.70, 0.044930, , 
73.74, 0.044970, , 
73.78, 0.044988, , 
73.81, 0.044891, , 
73.85, 0.044952, , 
73.89, 0.044907, , 
73.92, 0.044926, , 
73.96, 0.044946, , 
74.00, 0.044934, , 
74.03, 0.044998, , 
74.07, 0.044996, , 
74.11, 0.045002, , 
74.14, 0.044990, , 
74.18, 0.044958, , 
74.22, 0.044962, , 
74.25, 0.044946, , 
74.29, 0.045038, , 
74.33, 0.044958, , 
74.36, 0.044966, , 
74.40, 0.045045, , 
74.44, 0.044958, , 
74.47, 0.045024, , 
74.51, 0.044982, , 
74.55, 0.044980, , 
74.58, 0.045002, , 
74.62, 0.044952, , 
74.66, 0.045000, , 
74.69, 0.044984, , 
74.73, 0.045000, , 
74.77, 0.044960, , 
74.80, 0.044974, , 
74.84, 0.045028, , 
74.88, 0.044960, , 
74.91, 0.044998, , 
74.95, 0.044972, , 
74.99, 0.045002, , 
75.02, 0.045006, , 
75.06, 0.044938, , 
75.10, 0.045016, , 
75.13, 0.044990, , 
75.17, 0.044986, , 
75.21, 0.045038, , 
75.24, 0.045018, , 
75.28, 0.045036, , 
75.32, 0.044932, , 
75.35, 0.044925, , 
75.39, 0.044930, , 
75.43, 0.044895, , 
75.46, 0.044986, , 
75.50, 0.044958, , 
75.54, 0.044964, , 
75.57, 0.044944, , 
75.61, 0.044970, , 
75.65, 0.044986, , 
75.68, 0.044936, , 
75.72, 0.045004, , 
75.76, 0.044976, , 
75.79, 0.044954, , 
75.83, 0.044746, , 
75.87, 0.044536, , 
75.90, 0.044542, , 
75.94, 0.044504, , 
75.98, 0.044534, , 
76.01, 0.044474, , 
76.05, 0.044469, , 
76.09, 0.044488, , 
76.12, 0.044423, , 
76.16, 0.044496, , 
76.20, 0.044455, , 
76.23, 0.044516, , 
76.27, 0.044536, , 
76.31, 0.044494, , 
76.34, 0.044558, , 
76.38, 0.044496, , 
76.42, 0.044484, , 
76.45, 0.044478, , 
76.49, 0.044500, , 
76.53, 0.044558, , 
76.56, 0.044482, , 
76.60, 0.044514, , 
76.64, 0.044461, , 
76.67, 0.044469, , 
76.71, 0.044463, , 
76.75, 0.044435, , 
76.78, 0.044492, , 
76.78, 0.044492, , 
76.91, 0.044490, , 
