Gradient Profiler Text Data File: 1100rnasei_andreev2.csv,,,
Version: 1.88,,,
Date: 2016-01-12,,,
Time: 16:04:09,,,
,,,
User: Alicia,,,
Experiment name: 20160112_rnasecheck3,,,
UV Unit: EM-1,,,
Rotor Manufacturer: Beckman,,,
Rotor Model: SW41Ti,,,
Speed: 35000 rpm,,,
Gradient: sucrose 10.0% to 50.0% w/v,,,
Time: 180,,,
w2t:  x 10^0,,,
Sample Volume: 0.12 ml,,,
Number of Tubes: 8,,,
Volume per mm: 0.143 ml/mm,,,
Temperature: 4.0 deg C,,,
,,,
Absorbance Units Full Scale (AUFS): 0.50,,,
Manual-triggered gradient; (with distance; but no event marks),,,
Delay: No Delay,,,
UV Wavelength: 254 nm,,,
Samples / sec: 8 Hz,,,
EM1 Speed: 0.22 mm/sec,,,
Distance: 2.02 mm,,,
Number: 52,,,
Dead Volume: 0.000000 ml; Distance due to Dead Volume: 0.00 mm,,,
Length of Tubing: 0 mm,,,
Total Distance: 105.04 mm,,,
,,,
Data Columns:,,,
Distance, Absorbance,,
0.03,0.132808, , 
0.06,0.132814, , 
0.08,0.132847, , 
0.11,0.132904, , 
0.14,0.132931, , 
0.17,0.132934, , 
0.19,0.132975, , 
0.22,0.13302, , 
0.25,0.133032, , 
0.28,0.133058, , 
0.3,0.133088, , 
0.33,0.133085, , 
0.36,0.133126, , 
0.39,0.133183, , 
0.41,0.133174, , 
0.44,0.133179, , 
0.47,0.133231, , 
0.5,0.133257, , 
0.52,0.133273, , 
0.55,0.133312, , 
0.58,0.133318, , 
0.6,0.133312, , 
0.63,0.133344, , 
0.66,0.13338, , 
0.69,0.133403, , 
0.71,0.133423, , 
0.74,0.133449, , 
0.77,0.133437, , 
0.8,0.133466, , 
0.82,0.13351, , 
0.85,0.133531, , 
0.88,0.133553, , 
0.91,0.133584, , 
0.94,0.133589, , 
0.96,0.133623, , 
0.99,0.133675, , 
1.02,0.133684, , 
1.04,0.133684, , 
1.07,0.13371, , 
1.1,0.133771, , 
1.13,0.134518, , 
1.16,0.137269, , 
1.18,0.141332, , 
1.21,0.142607, , 
1.24,0.140486, , 
1.26,0.136342, , 
1.29,0.132177, , 
1.32,0.127794, , 
1.35,0.12427, , 
1.38,0.121538, , 
1.4,0.119499, , 
1.43,0.117947, , 
1.46,0.116798, , 
1.49,0.115633, , 
1.51,0.113976, , 
1.54,0.109883, , 
1.57,0.105081, , 
1.6,0.103323, , 
1.62,0.10461, , 
1.65,0.108052, , 
1.68,0.112139, , 
1.71,0.11589, , 
1.73,0.118511, , 
1.76,0.120778, , 
1.79,0.122386, , 
1.81,0.123538, , 
1.84,0.124418, , 
1.87,0.125147, , 
1.9,0.125701, , 
1.93,0.126286, , 
1.95,0.12686, , 
1.98,0.127366, , 
2.01,0.127791, , 
2.04,0.12816, , 
2.06,0.128528, , 
2.09,0.128824, , 
2.12,0.129129, , 
2.15,0.129414, , 
2.17,0.12961, , 
2.2,0.129827, , 
2.23,0.130029, , 
2.25,0.13018, , 
2.28,0.130331, , 
2.31,0.130498, , 
2.34,0.13061, , 
2.37,0.130743, , 
2.39,0.130871, , 
2.42,0.130983, , 
2.45,0.131065, , 
2.48,0.131165, , 
2.5,0.131269, , 
2.53,0.131344, , 
2.56,0.131432, , 
2.59,0.131518, , 
2.62,0.131578, , 
2.64,0.13165, , 
2.67,0.131745, , 
2.69,0.131787, , 
2.72,0.131838, , 
2.75,0.131906, , 
2.78,0.131943, , 
2.81,0.131976, , 
2.83,0.132038, , 
2.86,0.132091, , 
2.89,0.132124, , 
2.92,0.132173, , 
2.94,0.132287, , 
2.97,0.133505, , 
3,0.13638, , 
3.02,0.137704, , 
3.05,0.135959, , 
3.08,0.132619, , 
3.11,0.127765, , 
3.13,0.122536, , 
3.16,0.117444, , 
3.19,0.11275, , 
3.22,0.109032, , 
3.25,0.10527, , 
3.27,0.102062, , 
3.3,0.099291, , 
3.33,0.096782, , 
3.36,0.093324, , 
3.38,0.089182, , 
3.41,0.086039, , 
3.44,0.086087, , 
3.46,0.088467, , 
3.49,0.091956, , 
3.52,0.095368, , 
3.55,0.098837, , 
3.58,0.102679, , 
3.6,0.105827, , 
3.63,0.108397, , 
3.66,0.110235, , 
3.69,0.11191, , 
3.71,0.113261, , 
3.74,0.114348, , 
3.77,0.115187, , 
3.8,0.115905, , 
3.82,0.116387, , 
3.85,0.116808, , 
3.88,0.117172, , 
3.9,0.117481, , 
3.93,0.11771, , 
3.96,0.117936, , 
3.99,0.118162, , 
4.01,0.118326, , 
4.04,0.118488, , 
4.07,0.118661, , 
4.1,0.118789, , 
4.13,0.118891, , 
4.15,0.119018, , 
4.18,0.119128, , 
4.21,0.119241, , 
4.24,0.119404, , 
4.26,0.119531, , 
4.29,0.119633, , 
4.32,0.119753, , 
4.34,0.119881, , 
4.37,0.119973, , 
4.4,0.120062, , 
4.43,0.120189, , 
4.46,0.120292, , 
4.48,0.120417, , 
4.51,0.120541, , 
4.54,0.120625, , 
4.57,0.120708, , 
4.59,0.120816, , 
4.62,0.120908, , 
4.65,0.120982, , 
4.67,0.121097, , 
4.7,0.121162, , 
4.73,0.121214, , 
4.76,0.12131, , 
4.79,0.1214, , 
4.81,0.121447, , 
4.84,0.121523, , 
4.87,0.121602, , 
4.89,0.121638, , 
4.92,0.121685, , 
4.95,0.12177, , 
4.98,0.121821, , 
5,0.121857, , 
5.03,0.121953, , 
5.06,0.122022, , 
5.09,0.122086, , 
5.12,0.122158, , 
5.14,0.12222, , 
5.17,0.122256, , 
5.2,0.12232, , 
5.22,0.122392, , 
5.25,0.122419, , 
5.28,0.122484, , 
5.31,0.122542, , 
5.34,0.122563, , 
5.36,0.122593, , 
5.39,0.122655, , 
5.42,0.122682, , 
5.45,0.122693, , 
5.47,0.122759, , 
5.5,0.122802, , 
5.53,0.122809, , 
5.55,0.122857, , 
5.59,0.122903, , 
5.61,0.122921, , 
5.64,0.122984, , 
5.67,0.123032, , 
5.69,0.123047, , 
5.72,0.123081, , 
5.75,0.123115, , 
5.78,0.12314, , 
5.8,0.123175, , 
5.83,0.123218, , 
5.86,0.123253, , 
5.88,0.123278, , 
5.91,0.123312, , 
5.94,0.123347, , 
5.97,0.12338, , 
6,0.123439, , 
6.03,0.123614, , 
6.05,0.125086, , 
6.08,0.131328, , 
6.11,0.143075, , 
6.13,0.157843, , 
6.16,0.17401, , 
6.19,0.188647, , 
6.21,0.205575, , 
6.24,0.222522, , 
6.27,0.239602, , 
6.3,0.256734, , 
6.33,0.271821, , 
6.35,0.28905, , 
6.38,0.306361, , 
6.41,0.323573, , 
6.43,0.339468, , 
6.46,0.350925, , 
6.49,0.356596, , 
6.52,0.3599, , 
6.54,0.361583, , 
6.57,0.362624, , 
6.6,0.363549, , 
6.63,0.364354, , 
6.66,0.365251, , 
6.68,0.366132, , 
6.71,0.367057, , 
6.74,0.367943, , 
6.76,0.368717, , 
6.79,0.369624, , 
6.82,0.370464, , 
6.85,0.371229, , 
6.88,0.372009, , 
6.9,0.372765, , 
6.93,0.373399, , 
6.96,0.374128, , 
6.99,0.374852, , 
7.01,0.375517, , 
7.04,0.376193, , 
7.07,0.376801, , 
7.09,0.377464, , 
7.12,0.378097, , 
7.15,0.378751, , 
7.18,0.379341, , 
7.21,0.379884, , 
7.23,0.380386, , 
7.26,0.380922, , 
7.29,0.381434, , 
7.32,0.381962, , 
7.34,0.382451, , 
7.37,0.382838, , 
7.4,0.383328, , 
7.42,0.383825, , 
7.45,0.384281, , 
7.48,0.384751, , 
7.51,0.385225, , 
7.54,0.38559, , 
7.56,0.38602, , 
7.59,0.386494, , 
7.62,0.386946, , 
7.64,0.387425, , 
7.67,0.387894, , 
7.7,0.38844, , 
7.73,0.388971, , 
7.75,0.389589, , 
7.78,0.390209, , 
7.81,0.390741, , 
7.84,0.391367, , 
7.87,0.392029, , 
7.89,0.392664, , 
7.92,0.393309, , 
7.95,0.393857, , 
7.97,0.394455, , 
8,0.395017, , 
8.03,0.395535, , 
8.06,0.396009, , 
8.09,0.396409, , 
8.11,0.396742, , 
8.14,0.397038, , 
8.17,0.397269, , 
8.2,0.397449, , 
8.22,0.397554, , 
8.25,0.397565, , 
8.28,0.397504, , 
8.3,0.397423, , 
8.33,0.397278, , 
8.36,0.397123, , 
8.39,0.396891, , 
8.41,0.3966, , 
8.44,0.396211, , 
8.47,0.395805, , 
8.5,0.39532, , 
8.53,0.394768, , 
8.55,0.39423, , 
8.58,0.393575, , 
8.61,0.392728, , 
8.63,0.391907, , 
8.66,0.391014, , 
8.69,0.390135, , 
8.72,0.389071, , 
8.74,0.38792, , 
8.77,0.38665, , 
8.8,0.385321, , 
8.83,0.383963, , 
8.86,0.382701, , 
8.88,0.381178, , 
8.91,0.379591, , 
8.94,0.37792, , 
8.96,0.376167, , 
8.99,0.374584, , 
9.02,0.372797, , 
9.05,0.37069, , 
9.07,0.368626, , 
9.1,0.366493, , 
9.13,0.36424, , 
9.16,0.362247, , 
9.19,0.359923, , 
9.21,0.357463, , 
9.24,0.35491, , 
9.27,0.352344, , 
9.29,0.35, , 
9.32,0.347242, , 
9.35,0.344421, , 
9.38,0.341555, , 
9.4,0.338619, , 
9.43,0.336043, , 
9.46,0.333197, , 
9.49,0.329936, , 
9.52,0.326818, , 
9.54,0.323663, , 
9.57,0.320407, , 
9.6,0.317579, , 
9.63,0.314348, , 
9.65,0.31105, , 
9.68,0.307674, , 
9.71,0.304337, , 
9.73,0.301376, , 
9.76,0.297961, , 
9.79,0.294736, , 
9.82,0.291073, , 
9.85,0.287579, , 
9.87,0.284131, , 
9.9,0.281092, , 
9.93,0.277617, , 
9.96,0.274176, , 
9.98,0.270744, , 
10.01,0.267286, , 
10.04,0.264276, , 
10.07,0.26091, , 
10.09,0.257495, , 
10.12,0.254142, , 
10.15,0.250839, , 
10.18,0.247961, , 
10.2,0.244641, , 
10.23,0.241362, , 
10.26,0.238099, , 
10.29,0.234861, , 
10.31,0.231645, , 
10.34,0.22887, , 
10.37,0.225669, , 
10.4,0.222575, , 
10.42,0.219532, , 
10.45,0.216516, , 
10.48,0.213886, , 
10.51,0.210991, , 
10.53,0.208103, , 
10.56,0.205276, , 
10.59,0.202503, , 
10.62,0.199786, , 
10.64,0.197442, , 
10.67,0.194857, , 
10.7,0.194319, , 
10.73,0.190985, , 
10.75,0.187253, , 
10.78,0.185102, , 
10.81,0.182672, , 
10.84,0.180356, , 
10.86,0.178104, , 
10.89,0.175851, , 
10.92,0.173936, , 
10.95,0.171945, , 
10.97,0.170253, , 
11,0.167822, , 
11.03,0.165919, , 
11.06,0.164043, , 
11.08,0.162407, , 
11.11,0.160592, , 
11.14,0.158857, , 
11.16,0.157105, , 
11.19,0.155429, , 
11.22,0.155106, , 
11.25,0.152867, , 
11.28,0.150811, , 
11.3,0.149286, , 
11.33,0.147755, , 
11.36,0.146422, , 
11.39,0.144957, , 
11.41,0.143508, , 
11.44,0.142091, , 
11.47,0.14178, , 
11.49,0.139991, , 
11.52,0.13822, , 
11.55,0.136983, , 
11.58,0.135757, , 
11.61,0.134536, , 
11.63,0.133384, , 
11.66,0.132395, , 
11.69,0.131212, , 
11.72,0.130074, , 
11.74,0.129342, , 
11.77,0.127875, , 
11.8,0.126813, , 
11.82,0.125897, , 
11.85,0.124842, , 
11.88,0.123817, , 
11.91,0.122819, , 
11.94,0.121847, , 
11.96,0.120999, , 
11.99,0.120138, , 
12.02,0.119189, , 
12.05,0.118281, , 
12.07,0.117412, , 
12.1,0.116715, , 
12.13,0.115756, , 
12.15,0.114928, , 
12.18,0.114015, , 
12.21,0.113169, , 
12.24,0.112259, , 
12.27,0.111563, , 
12.29,0.110722, , 
12.32,0.109872, , 
12.35,0.109078, , 
12.38,0.108295, , 
12.4,0.107599, , 
12.43,0.106864, , 
12.46,0.106144, , 
12.48,0.105426, , 
12.51,0.104742, , 
12.54,0.104104, , 
12.57,0.103453, , 
12.6,0.102772, , 
12.62,0.102128, , 
12.65,0.101406, , 
12.68,0.100702, , 
12.71,0.100145, , 
12.73,0.099491, , 
12.76,0.098857, , 
12.79,0.098178, , 
12.82,0.097524, , 
12.84,0.096928, , 
12.87,0.096314, , 
12.9,0.095628, , 
12.93,0.094964, , 
12.95,0.094327, , 
12.98,0.093737, , 
13.01,0.093168, , 
13.04,0.092591, , 
13.06,0.092054, , 
13.09,0.091506, , 
13.12,0.0909, , 
13.15,0.090465, , 
13.17,0.089942, , 
13.2,0.089437, , 
13.23,0.088919, , 
13.26,0.088434, , 
13.29,0.087914, , 
13.31,0.087539, , 
13.34,0.087047, , 
13.37,0.086579, , 
13.39,0.086156, , 
13.42,0.085763, , 
13.45,0.085429, , 
13.48,0.085008, , 
13.5,0.084629, , 
13.53,0.084212, , 
13.56,0.083814, , 
13.59,0.083531, , 
13.61,0.083146, , 
13.64,0.082789, , 
13.67,0.082496, , 
13.7,0.082213, , 
13.73,0.081882, , 
13.75,0.081627, , 
13.78,0.081344, , 
13.81,0.081057, , 
13.83,0.080783, , 
13.86,0.080568, , 
13.89,0.080358, , 
13.91,0.080144, , 
13.94,0.079956, , 
13.97,0.079774, , 
14,0.079562, , 
14.03,0.079423, , 
14.05,0.079306, , 
14.08,0.079183, , 
14.11,0.079115, , 
14.14,0.079003, , 
14.16,0.07891, , 
14.19,0.078866, , 
14.22,0.078815, , 
14.24,0.078745, , 
14.27,0.078727, , 
14.3,0.078721, , 
14.33,0.078705, , 
14.36,0.078692, , 
14.38,0.078719, , 
14.41,0.078727, , 
14.44,0.078757, , 
14.47,0.078811, , 
14.49,0.078852, , 
14.52,0.078895, , 
14.55,0.078961, , 
14.57,0.079035, , 
14.6,0.079085, , 
14.63,0.079135, , 
14.66,0.079209, , 
14.69,0.079255, , 
14.71,0.079337, , 
14.74,0.07947, , 
14.77,0.079543, , 
14.8,0.079596, , 
14.82,0.079647, , 
14.85,0.079643, , 
14.88,0.079638, , 
14.9,0.079686, , 
14.93,0.079736, , 
14.96,0.079769, , 
14.99,0.079872, , 
15.02,0.079935, , 
15.04,0.079984, , 
15.07,0.08007, , 
15.1,0.080136, , 
15.13,0.080132, , 
15.15,0.080136, , 
15.18,0.080177, , 
15.21,0.080252, , 
15.23,0.080324, , 
15.26,0.080407, , 
15.29,0.080385, , 
15.32,0.080345, , 
15.35,0.08033, , 
15.37,0.080282, , 
15.4,0.080184, , 
15.43,0.080103, , 
15.46,0.079992, , 
15.48,0.079878, , 
15.51,0.0798, , 
15.54,0.079681, , 
15.57,0.079536, , 
15.59,0.079388, , 
15.62,0.079273, , 
15.65,0.079092, , 
15.68,0.078891, , 
15.7,0.078728, , 
15.73,0.078536, , 
15.76,0.078327, , 
15.79,0.078157, , 
15.81,0.077974, , 
15.84,0.077745, , 
15.87,0.077517, , 
15.9,0.077284, , 
15.92,0.077017, , 
15.95,0.076818, , 
15.98,0.07657, , 
16,0.076313, , 
16.03,0.07608, , 
16.06,0.075871, , 
16.09,0.075595, , 
16.11,0.075379, , 
16.14,0.075153, , 
16.17,0.074913, , 
16.2,0.074644, , 
16.23,0.07442, , 
16.25,0.074201, , 
16.28,0.073948, , 
16.31,0.073693, , 
16.34,0.073455, , 
16.36,0.073179, , 
16.39,0.072985, , 
16.42,0.072739, , 
16.45,0.072495, , 
16.47,0.072259, , 
16.5,0.072066, , 
16.53,0.071811, , 
16.56,0.07161, , 
16.58,0.071419, , 
16.61,0.071215, , 
16.64,0.070994, , 
16.66,0.070815, , 
16.69,0.070638, , 
16.72,0.070451, , 
16.75,0.07032, , 
16.77,0.07018, , 
16.8,0.06999, , 
16.83,0.069866, , 
16.86,0.06974, , 
16.89,0.069566, , 
16.91,0.069427, , 
16.94,0.069305, , 
16.97,0.069137, , 
17,0.069035, , 
17.02,0.068959, , 
17.05,0.068851, , 
17.08,0.06874, , 
17.11,0.068651, , 
17.13,0.068549, , 
17.16,0.068441, , 
17.19,0.068382, , 
17.22,0.068304, , 
17.24,0.068191, , 
17.27,0.068111, , 
17.3,0.068046, , 
17.32,0.067957, , 
17.35,0.067894, , 
17.38,0.067857, , 
17.41,0.067769, , 
17.43,0.06771, , 
17.46,0.067677, , 
17.49,0.067604, , 
17.52,0.067536, , 
17.55,0.067505, , 
17.57,0.067454, , 
17.6,0.067396, , 
17.63,0.067365, , 
17.66,0.067322, , 
17.68,0.067251, , 
17.71,0.067224, , 
17.74,0.067183, , 
17.77,0.067105, , 
17.79,0.067068, , 
17.82,0.067038, , 
17.85,0.066956, , 
17.88,0.066888, , 
17.9,0.066837, , 
17.93,0.066745, , 
17.96,0.066653, , 
17.98,0.066603, , 
18.01,0.066528, , 
18.04,0.066458, , 
18.07,0.0664, , 
18.09,0.066324, , 
18.12,0.066203, , 
18.15,0.06613, , 
18.18,0.066075, , 
18.2,0.065961, , 
18.23,0.065876, , 
18.26,0.065791, , 
18.29,0.065682, , 
18.32,0.065588, , 
18.34,0.065507, , 
18.37,0.065372, , 
18.4,0.065257, , 
18.43,0.065191, , 
18.45,0.065086, , 
18.48,0.064972, , 
18.51,0.064863, , 
18.54,0.064737, , 
18.56,0.06461, , 
18.59,0.064526, , 
18.62,0.06443, , 
18.65,0.064289, , 
18.67,0.064166, , 
18.7,0.064073, , 
18.73,0.063951, , 
18.75,0.063819, , 
18.78,0.063707, , 
18.81,0.063548, , 
18.84,0.063407, , 
18.86,0.063313, , 
18.89,0.063184, , 
18.92,0.063066, , 
18.95,0.062948, , 
18.98,0.062804, , 
19,0.062636, , 
19.03,0.062514, , 
19.06,0.062391, , 
19.09,0.062235, , 
19.11,0.062095, , 
19.14,0.061969, , 
19.17,0.061792, , 
19.2,0.061656, , 
19.22,0.061534, , 
19.25,0.061382, , 
19.28,0.06124, , 
19.31,0.061121, , 
19.33,0.060954, , 
19.36,0.060819, , 
19.39,0.060672, , 
19.41,0.060531, , 
19.44,0.060371, , 
19.47,0.060244, , 
19.5,0.060098, , 
19.52,0.059962, , 
19.55,0.05982, , 
19.58,0.059681, , 
19.61,0.059509, , 
19.64,0.059339, , 
19.66,0.059205, , 
19.69,0.059005, , 
19.72,0.058833, , 
19.75,0.058703, , 
19.77,0.058534, , 
19.8,0.058402, , 
19.83,0.05827, , 
19.86,0.058139, , 
19.88,0.058003, , 
19.91,0.05792, , 
19.94,0.057796, , 
19.97,0.057654, , 
19.99,0.057526, , 
20.02,0.057399, , 
20.05,0.057262, , 
20.07,0.057164, , 
20.1,0.057074, , 
20.13,0.05694, , 
20.16,0.056841, , 
20.18,0.056763, , 
20.21,0.056647, , 
20.24,0.05654, , 
20.27,0.056472, , 
20.3,0.056365, , 
20.32,0.056258, , 
20.35,0.056213, , 
20.38,0.056132, , 
20.41,0.056056, , 
20.43,0.055995, , 
20.46,0.055936, , 
20.49,0.055843, , 
20.52,0.055796, , 
20.54,0.055759, , 
20.57,0.055681, , 
20.6,0.055614, , 
20.63,0.0556, , 
20.65,0.055547, , 
20.68,0.0555, , 
20.71,0.05548, , 
20.73,0.055436, , 
20.76,0.055418, , 
20.79,0.055434, , 
20.82,0.055438, , 
20.84,0.05542, , 
20.87,0.055428, , 
20.9,0.055431, , 
20.93,0.055391, , 
20.95,0.055381, , 
20.98,0.055412, , 
21.01,0.055414, , 
21.04,0.055426, , 
21.07,0.055437, , 
21.09,0.055414, , 
21.12,0.055412, , 
21.15,0.055437, , 
21.18,0.055443, , 
21.2,0.055467, , 
21.23,0.055525, , 
21.26,0.055538, , 
21.29,0.05553, , 
21.31,0.055562, , 
21.34,0.055568, , 
21.37,0.055586, , 
21.4,0.055632, , 
21.42,0.055671, , 
21.45,0.055665, , 
21.48,0.055674, , 
21.5,0.055695, , 
21.53,0.055705, , 
21.56,0.055749, , 
21.59,0.0558, , 
21.61,0.055798, , 
21.64,0.055787, , 
21.67,0.055813, , 
21.7,0.055793, , 
21.73,0.055787, , 
21.75,0.055813, , 
21.78,0.055804, , 
21.81,0.055741, , 
21.84,0.055725, , 
21.86,0.055706, , 
21.89,0.055673, , 
21.92,0.055677, , 
21.95,0.055652, , 
21.97,0.055566, , 
22,0.055517, , 
22.03,0.055498, , 
22.06,0.055431, , 
22.08,0.05536, , 
22.11,0.055315, , 
22.14,0.055227, , 
22.17,0.055147, , 
22.19,0.055097, , 
22.22,0.05502, , 
22.25,0.054919, , 
22.27,0.054843, , 
22.3,0.054755, , 
22.33,0.054655, , 
22.36,0.054566, , 
22.39,0.054487, , 
22.41,0.054356, , 
22.44,0.05424, , 
22.47,0.054165, , 
22.5,0.054066, , 
22.52,0.053935, , 
22.55,0.053843, , 
22.58,0.053725, , 
22.61,0.0536, , 
22.63,0.053526, , 
22.66,0.053394, , 
22.69,0.053219, , 
22.72,0.05309, , 
22.74,0.05295, , 
22.77,0.052845, , 
22.8,0.052735, , 
22.82,0.052636, , 
22.85,0.052488, , 
22.88,0.05237, , 
22.91,0.052239, , 
22.93,0.052088, , 
22.96,0.051937, , 
22.99,0.051826, , 
23.02,0.051704, , 
23.05,0.05158, , 
23.07,0.051495, , 
23.1,0.051363, , 
23.13,0.05121, , 
23.16,0.051118, , 
23.18,0.051013, , 
23.21,0.050892, , 
23.24,0.050788, , 
23.27,0.050698, , 
23.29,0.05056, , 
23.32,0.05044, , 
23.35,0.05033, , 
23.38,0.050225, , 
23.4,0.050104, , 
23.43,0.050015, , 
23.46,0.049883, , 
23.48,0.049772, , 
23.51,0.04971, , 
23.54,0.04962, , 
23.57,0.0495, , 
23.59,0.049423, , 
23.62,0.049323, , 
23.65,0.049196, , 
23.68,0.049127, , 
23.7,0.049059, , 
23.73,0.048954, , 
23.76,0.048876, , 
23.79,0.048796, , 
23.82,0.048691, , 
23.84,0.048601, , 
23.87,0.048539, , 
23.9,0.048453, , 
23.93,0.048363, , 
23.95,0.048315, , 
23.98,0.048239, , 
24.01,0.048156, , 
24.04,0.048111, , 
24.06,0.048036, , 
24.09,0.047948, , 
24.12,0.047878, , 
24.15,0.047817, , 
24.17,0.047718, , 
24.2,0.04768, , 
24.23,0.047647, , 
24.25,0.047589, , 
24.28,0.047513, , 
24.31,0.047479, , 
24.34,0.047401, , 
24.36,0.04734, , 
24.4,0.047321, , 
24.42,0.047272, , 
24.45,0.047197, , 
24.48,0.047179, , 
24.5,0.047154, , 
24.53,0.047085, , 
24.56,0.047076, , 
24.59,0.047072, , 
24.61,0.047022, , 
24.64,0.04698, , 
24.67,0.046961, , 
24.7,0.046939, , 
24.72,0.04691, , 
24.75,0.046933, , 
24.78,0.046912, , 
24.81,0.046902, , 
24.84,0.046922, , 
24.86,0.046912, , 
24.89,0.046898, , 
24.91,0.046906, , 
24.94,0.046911, , 
24.97,0.04689, , 
25,0.046916, , 
25.02,0.046927, , 
25.05,0.046918, , 
25.08,0.046967, , 
25.11,0.047019, , 
25.14,0.047036, , 
25.16,0.047073, , 
25.19,0.047147, , 
25.22,0.047177, , 
25.25,0.047235, , 
25.27,0.047333, , 
25.3,0.047384, , 
25.33,0.047422, , 
25.36,0.047542, , 
25.38,0.047651, , 
25.41,0.047725, , 
25.44,0.047826, , 
25.47,0.047935, , 
25.49,0.048039, , 
25.52,0.048141, , 
25.55,0.048272, , 
25.58,0.048299, , 
25.6,0.048487, , 
25.63,0.04867, , 
25.66,0.048815, , 
25.68,0.048956, , 
25.71,0.049144, , 
25.74,0.049302, , 
25.77,0.049469, , 
25.8,0.049682, , 
25.83,0.049719, , 
25.85,0.049986, , 
25.88,0.050258, , 
25.91,0.050475, , 
25.93,0.050695, , 
25.96,0.05093, , 
25.99,0.05118, , 
26.02,0.051441, , 
26.04,0.051662, , 
26.07,0.051998, , 
26.1,0.052157, , 
26.13,0.052552, , 
26.15,0.052874, , 
26.18,0.05314, , 
26.21,0.053448, , 
26.23,0.053779, , 
26.26,0.054138, , 
26.29,0.054459, , 
26.32,0.054726, , 
26.34,0.055032, , 
26.37,0.055447, , 
26.4,0.055835, , 
26.43,0.05628, , 
26.45,0.056642, , 
26.48,0.056949, , 
26.51,0.057399, , 
26.54,0.057814, , 
26.57,0.058233, , 
26.59,0.058669, , 
26.62,0.059102, , 
26.65,0.059556, , 
26.68,0.060041, , 
26.7,0.060519, , 
26.73,0.061018, , 
26.76,0.061497, , 
26.79,0.061952, , 
26.81,0.062414, , 
26.84,0.062954, , 
26.87,0.063502, , 
26.9,0.064017, , 
26.92,0.064476, , 
26.95,0.065079, , 
26.98,0.065608, , 
27,0.066145, , 
27.03,0.066701, , 
27.06,0.0673, , 
27.09,0.067801, , 
27.11,0.068402, , 
27.14,0.06897, , 
27.17,0.06961, , 
27.2,0.070246, , 
27.23,0.070783, , 
27.25,0.071332, , 
27.28,0.071944, , 
27.31,0.072569, , 
27.34,0.073169, , 
27.36,0.073664, , 
27.39,0.07435, , 
27.42,0.074994, , 
27.45,0.075614, , 
27.47,0.076233, , 
27.5,0.076826, , 
27.53,0.07742, , 
27.56,0.078043, , 
27.58,0.078651, , 
27.61,0.079278, , 
27.64,0.079912, , 
27.66,0.080455, , 
27.69,0.081025, , 
27.72,0.081686, , 
27.75,0.082309, , 
27.77,0.082883, , 
27.8,0.083366, , 
27.83,0.084016, , 
27.86,0.084592, , 
27.89,0.085172, , 
27.91,0.085735, , 
27.94,0.086296, , 
27.97,0.086758, , 
28,0.08731, , 
28.02,0.087834, , 
28.05,0.088375, , 
28.08,0.088907, , 
28.11,0.089384, , 
28.13,0.08985, , 
28.16,0.090329, , 
28.19,0.090804, , 
28.22,0.091241, , 
28.24,0.091585, , 
28.27,0.092061, , 
28.3,0.092507, , 
28.32,0.092901, , 
28.35,0.093289, , 
28.38,0.09369, , 
28.41,0.093987, , 
28.43,0.094362, , 
28.46,0.094699, , 
28.49,0.095009, , 
28.52,0.095306, , 
28.55,0.095584, , 
28.57,0.095845, , 
28.6,0.096143, , 
28.63,0.096419, , 
28.66,0.096664, , 
28.68,0.096892, , 
28.71,0.097113, , 
28.74,0.097314, , 
28.77,0.097499, , 
28.79,0.097693, , 
28.82,0.097873, , 
28.85,0.097976, , 
28.88,0.098132, , 
28.9,0.098251, , 
28.93,0.098327, , 
28.96,0.098403, , 
28.98,0.098483, , 
29.01,0.098514, , 
29.04,0.098513, , 
29.07,0.098551, , 
29.09,0.098545, , 
29.12,0.09853, , 
29.15,0.098514, , 
29.18,0.098487, , 
29.2,0.098417, , 
29.23,0.098383, , 
29.26,0.098298, , 
29.29,0.098202, , 
29.32,0.098088, , 
29.34,0.097984, , 
29.37,0.097833, , 
29.4,0.0977, , 
29.43,0.097573, , 
29.45,0.097452, , 
29.48,0.097287, , 
29.51,0.097133, , 
29.54,0.096938, , 
29.56,0.096731, , 
29.59,0.096573, , 
29.62,0.096355, , 
29.65,0.096116, , 
29.67,0.095915, , 
29.7,0.095699, , 
29.73,0.095458, , 
29.75,0.095226, , 
29.78,0.095007, , 
29.81,0.094764, , 
29.84,0.094487, , 
29.86,0.094238, , 
29.89,0.093973, , 
29.92,0.09369, , 
29.95,0.093431, , 
29.98,0.093114, , 
30,0.092807, , 
30.03,0.092574, , 
30.06,0.092267, , 
30.09,0.091954, , 
30.11,0.09166, , 
30.14,0.091351, , 
30.17,0.091062, , 
30.2,0.090733, , 
30.22,0.09045, , 
30.25,0.090103, , 
30.28,0.089782, , 
30.31,0.089462, , 
30.33,0.089178, , 
30.36,0.088857, , 
30.39,0.088584, , 
30.41,0.088229, , 
30.44,0.087897, , 
30.47,0.087639, , 
30.5,0.087351, , 
30.52,0.086986, , 
30.55,0.086665, , 
30.58,0.086361, , 
30.61,0.086043, , 
30.64,0.085745, , 
30.66,0.085424, , 
30.69,0.085082, , 
30.72,0.084792, , 
30.75,0.084502, , 
30.77,0.084218, , 
30.8,0.083913, , 
30.83,0.083662, , 
30.86,0.083361, , 
30.88,0.083032, , 
30.91,0.082787, , 
30.94,0.082521, , 
30.97,0.082204, , 
30.99,0.081943, , 
31.02,0.081711, , 
31.05,0.081434, , 
31.07,0.081166, , 
31.1,0.080909, , 
31.13,0.080609, , 
31.16,0.080364, , 
31.18,0.080114, , 
31.21,0.079859, , 
31.24,0.079575, , 
31.27,0.079351, , 
31.3,0.079084, , 
31.32,0.078792, , 
31.35,0.078559, , 
31.38,0.078361, , 
31.41,0.078071, , 
31.43,0.077815, , 
31.46,0.077576, , 
31.49,0.07733, , 
31.52,0.077151, , 
31.54,0.076929, , 
31.57,0.076684, , 
31.6,0.076465, , 
31.63,0.076293, , 
31.65,0.076117, , 
31.68,0.075878, , 
31.71,0.075689, , 
31.73,0.075466, , 
31.76,0.075265, , 
31.79,0.075082, , 
31.82,0.074914, , 
31.84,0.074702, , 
31.87,0.074515, , 
31.9,0.074342, , 
31.93,0.074149, , 
31.95,0.073971, , 
31.98,0.073806, , 
32.01,0.073619, , 
32.04,0.073447, , 
32.06,0.07329, , 
32.09,0.073106, , 
32.12,0.072941, , 
32.15,0.072802, , 
32.17,0.072651, , 
32.2,0.072487, , 
32.23,0.072341, , 
32.26,0.072214, , 
32.28,0.072008, , 
32.31,0.071843, , 
32.34,0.071691, , 
32.37,0.071491, , 
32.4,0.071361, , 
32.42,0.07124, , 
32.45,0.07109, , 
32.48,0.070982, , 
32.51,0.070889, , 
32.53,0.070759, , 
32.56,0.070619, , 
32.59,0.070502, , 
32.62,0.070364, , 
32.64,0.070234, , 
32.67,0.070125, , 
32.7,0.070057, , 
32.73,0.069946, , 
32.75,0.069834, , 
32.78,0.069762, , 
32.81,0.069654, , 
32.84,0.069549, , 
32.86,0.069494, , 
32.89,0.069398, , 
32.92,0.06933, , 
32.95,0.069309, , 
32.97,0.069233, , 
33,0.069158, , 
33.03,0.069103, , 
33.06,0.069087, , 
33.08,0.069036, , 
33.11,0.069005, , 
33.14,0.068982, , 
33.16,0.068935, , 
33.19,0.068937, , 
33.22,0.068952, , 
33.25,0.068953, , 
33.27,0.06898, , 
33.3,0.069044, , 
33.33,0.069074, , 
33.36,0.069139, , 
33.38,0.069241, , 
33.41,0.069338, , 
33.44,0.069425, , 
33.47,0.069567, , 
33.49,0.069716, , 
33.52,0.069861, , 
33.55,0.070073, , 
33.58,0.070242, , 
33.6,0.070509, , 
33.63,0.070794, , 
33.66,0.071107, , 
33.69,0.071389, , 
33.72,0.07175, , 
33.74,0.072101, , 
33.77,0.072496, , 
33.8,0.072906, , 
33.83,0.073428, , 
33.85,0.073946, , 
33.88,0.074413, , 
33.91,0.074977, , 
33.94,0.075627, , 
33.96,0.076238, , 
33.99,0.07692, , 
34.02,0.077539, , 
34.05,0.078277, , 
34.07,0.079069, , 
34.1,0.079915, , 
34.13,0.08073, , 
34.16,0.081674, , 
34.18,0.082512, , 
34.21,0.083462, , 
34.24,0.084383, , 
34.27,0.085455, , 
34.29,0.086472, , 
34.32,0.087385, , 
34.35,0.088434, , 
34.38,0.089588, , 
34.4,0.090699, , 
34.43,0.091871, , 
34.46,0.092887, , 
34.48,0.094039, , 
34.51,0.095208, , 
34.54,0.096387, , 
34.57,0.097474, , 
34.59,0.098732, , 
34.62,0.099809, , 
34.65,0.100996, , 
34.68,0.10212, , 
34.7,0.103347, , 
34.73,0.10447, , 
34.76,0.105603, , 
34.79,0.106541, , 
34.81,0.107729, , 
34.84,0.108813, , 
34.87,0.109887, , 
34.9,0.110934, , 
34.92,0.111647, , 
34.95,0.112729, , 
34.98,0.113671, , 
35.01,0.114566, , 
35.03,0.115431, , 
35.06,0.116049, , 
35.09,0.116944, , 
35.12,0.117656, , 
35.15,0.118361, , 
35.17,0.11889, , 
35.2,0.119534, , 
35.23,0.120028, , 
35.26,0.120499, , 
35.28,0.120921, , 
35.31,0.121299, , 
35.34,0.121629, , 
35.37,0.121866, , 
35.39,0.1221, , 
35.42,0.122338, , 
35.45,0.122466, , 
35.48,0.122578, , 
35.51,0.122635, , 
35.53,0.12265, , 
35.56,0.122657, , 
35.59,0.122655, , 
35.61,0.122562, , 
35.64,0.122435, , 
35.67,0.12232, , 
35.7,0.122112, , 
35.72,0.121882, , 
35.75,0.121615, , 
35.78,0.121303, , 
35.81,0.120979, , 
35.83,0.120647, , 
35.86,0.120234, , 
35.89,0.119819, , 
35.91,0.119398, , 
35.95,0.119017, , 
35.97,0.118535, , 
36,0.118048, , 
36.02,0.117564, , 
36.05,0.117117, , 
36.08,0.116532, , 
36.11,0.116093, , 
36.13,0.115583, , 
36.16,0.115067, , 
36.19,0.114515, , 
36.22,0.113986, , 
36.25,0.113405, , 
36.27,0.112953, , 
36.3,0.11237, , 
36.33,0.111809, , 
36.35,0.111267, , 
36.38,0.110719, , 
36.41,0.11028, , 
36.44,0.109582, , 
36.47,0.108986, , 
36.49,0.108318, , 
36.52,0.107673, , 
36.55,0.107228, , 
36.58,0.106523, , 
36.6,0.105913, , 
36.63,0.105351, , 
36.66,0.104831, , 
36.69,0.104149, , 
36.71,0.103658, , 
36.74,0.103095, , 
36.77,0.102554, , 
36.8,0.102004, , 
36.82,0.101513, , 
36.85,0.101064, , 
36.88,0.100616, , 
36.91,0.10016, , 
36.93,0.099667, , 
36.96,0.099166, , 
36.99,0.098845, , 
37.02,0.098325, , 
37.04,0.097885, , 
37.07,0.097464, , 
37.1,0.097074, , 
37.13,0.096587, , 
37.15,0.096257, , 
37.18,0.095873, , 
37.21,0.095483, , 
37.23,0.095087, , 
37.26,0.094709, , 
37.29,0.094356, , 
37.32,0.094029, , 
37.34,0.093604, , 
37.37,0.093178, , 
37.4,0.092765, , 
37.43,0.092441, , 
37.45,0.092038, , 
37.48,0.091598, , 
37.51,0.09122, , 
37.54,0.090872, , 
37.56,0.09041, , 
37.59,0.090098, , 
37.62,0.089723, , 
37.65,0.089378, , 
37.67,0.089022, , 
37.7,0.088699, , 
37.73,0.088385, , 
37.76,0.088106, , 
37.78,0.08776, , 
37.81,0.087401, , 
37.84,0.087066, , 
37.87,0.086815, , 
37.9,0.086507, , 
37.92,0.086199, , 
37.95,0.085932, , 
37.98,0.085669, , 
38.01,0.085334, , 
38.03,0.085127, , 
38.06,0.084862, , 
38.09,0.08459, , 
38.12,0.084323, , 
38.14,0.084038, , 
38.17,0.083756, , 
38.2,0.083585, , 
38.23,0.083308, , 
38.25,0.083045, , 
38.28,0.082813, , 
38.31,0.082585, , 
38.34,0.082384, , 
38.36,0.082094, , 
38.39,0.08189, , 
38.42,0.081646, , 
38.45,0.081393, , 
38.47,0.081224, , 
38.5,0.080949, , 
38.53,0.080705, , 
38.56,0.08049, , 
38.58,0.080272, , 
38.61,0.080056, , 
38.64,0.079828, , 
38.66,0.079602, , 
38.69,0.079345, , 
38.72,0.079166, , 
38.75,0.078922, , 
38.77,0.078712, , 
38.8,0.078472, , 
38.83,0.078266, , 
38.86,0.078006, , 
38.88,0.077776, , 
38.92,0.07756, , 
38.94,0.077396, , 
38.97,0.077137, , 
38.99,0.076943, , 
39.02,0.076716, , 
39.05,0.07648, , 
39.08,0.076337, , 
39.1,0.076089, , 
39.13,0.075866, , 
39.16,0.075689, , 
39.19,0.075491, , 
39.22,0.075322, , 
39.24,0.075073, , 
39.27,0.074896, , 
39.3,0.074671, , 
39.33,0.074486, , 
39.36,0.074274, , 
39.38,0.07406, , 
39.41,0.073834, , 
39.44,0.073683, , 
39.46,0.073444, , 
39.49,0.073198, , 
39.52,0.073027, , 
39.55,0.072847, , 
39.57,0.072599, , 
39.6,0.072399, , 
39.63,0.072189, , 
39.66,0.072002, , 
39.68,0.071808, , 
39.71,0.07161, , 
39.74,0.071371, , 
39.77,0.071215, , 
39.79,0.071028, , 
39.82,0.070847, , 
39.85,0.070643, , 
39.88,0.070502, , 
39.9,0.070468, , 
39.93,0.070139, , 
39.96,0.069945, , 
39.98,0.0698, , 
40.01,0.069578, , 
40.04,0.069414, , 
40.07,0.069236, , 
40.1,0.069053, , 
40.12,0.068912, , 
40.15,0.068726, , 
40.18,0.068554, , 
40.2,0.068388, , 
40.23,0.068228, , 
40.26,0.068042, , 
40.29,0.067841, , 
40.31,0.067713, , 
40.34,0.067539, , 
40.37,0.067366, , 
40.4,0.067243, , 
40.42,0.067211, , 
40.45,0.06693, , 
40.48,0.066716, , 
40.51,0.06655, , 
40.53,0.066382, , 
40.56,0.066273, , 
40.59,0.066128, , 
40.62,0.065951, , 
40.65,0.06581, , 
40.68,0.065785, , 
40.7,0.065588, , 
40.73,0.065387, , 
40.76,0.06527, , 
40.78,0.065101, , 
40.81,0.064957, , 
40.84,0.06484, , 
40.87,0.06467, , 
40.89,0.064524, , 
40.93,0.064412, , 
40.95,0.064246, , 
40.98,0.06408, , 
41,0.063991, , 
41.03,0.063845, , 
41.06,0.063673, , 
41.09,0.063588, , 
41.11,0.063479, , 
41.14,0.063362, , 
41.17,0.063219, , 
41.2,0.063088, , 
41.22,0.062956, , 
41.25,0.062846, , 
41.28,0.06275, , 
41.31,0.062622, , 
41.33,0.062476, , 
41.36,0.062401, , 
41.39,0.062282, , 
41.41,0.062143, , 
41.44,0.062037, , 
41.47,0.061919, , 
41.5,0.06176, , 
41.52,0.06166, , 
41.55,0.061567, , 
41.58,0.061496, , 
41.61,0.061428, , 
41.63,0.061375, , 
41.66,0.061267, , 
41.69,0.061191, , 
41.72,0.061091, , 
41.74,0.060967, , 
41.77,0.060859, , 
41.8,0.060799, , 
41.83,0.060708, , 
41.85,0.060619, , 
41.88,0.060598, , 
41.91,0.060546, , 
41.94,0.060455, , 
41.97,0.060417, , 
41.99,0.060343, , 
42.02,0.060277, , 
42.05,0.060217, , 
42.08,0.060191, , 
42.1,0.060185, , 
42.13,0.060222, , 
42.16,0.06031, , 
42.19,0.060359, , 
42.21,0.060409, , 
42.24,0.060472, , 
42.27,0.060535, , 
42.3,0.060598, , 
42.32,0.060651, , 
42.35,0.060653, , 
42.38,0.060657, , 
42.41,0.060653, , 
42.43,0.060612, , 
42.46,0.060554, , 
42.49,0.060515, , 
42.52,0.060448, , 
42.54,0.060296, , 
42.57,0.060185, , 
42.6,0.060014, , 
42.63,0.059829, , 
42.65,0.05965, , 
42.68,0.059494, , 
42.71,0.059264, , 
42.73,0.059083, , 
42.76,0.05896, , 
42.79,0.058808, , 
42.82,0.058615, , 
42.84,0.05851, , 
42.87,0.0584, , 
42.9,0.058288, , 
42.93,0.058189, , 
42.95,0.058103, , 
42.98,0.058, , 
43.01,0.057934, , 
43.04,0.057878, , 
43.06,0.057824, , 
43.09,0.057793, , 
43.12,0.057771, , 
43.15,0.057706, , 
43.17,0.057619, , 
43.2,0.057581, , 
43.23,0.057534, , 
43.26,0.057428, , 
43.28,0.057345, , 
43.31,0.057226, , 
43.34,0.057112, , 
43.37,0.057037, , 
43.4,0.056901, , 
43.42,0.056731, , 
43.45,0.056605, , 
43.48,0.056459, , 
43.51,0.056331, , 
43.53,0.056177, , 
43.56,0.056049, , 
43.59,0.055894, , 
43.62,0.055755, , 
43.64,0.055646, , 
43.67,0.055549, , 
43.7,0.055453, , 
43.73,0.055399, , 
43.75,0.055282, , 
43.78,0.055194, , 
43.81,0.055166, , 
43.84,0.055122, , 
43.86,0.055025, , 
43.89,0.054957, , 
43.92,0.054892, , 
43.95,0.054824, , 
43.97,0.05474, , 
44,0.054715, , 
44.03,0.054653, , 
44.06,0.054598, , 
44.08,0.054582, , 
44.11,0.054539, , 
44.14,0.054485, , 
44.16,0.054466, , 
44.19,0.054418, , 
44.22,0.054365, , 
44.25,0.05435, , 
44.27,0.054326, , 
44.3,0.05429, , 
44.33,0.0543, , 
44.36,0.054273, , 
44.38,0.054227, , 
44.41,0.054198, , 
44.44,0.0542, , 
44.47,0.054163, , 
44.49,0.054166, , 
44.52,0.054183, , 
44.55,0.054157, , 
44.58,0.054151, , 
44.6,0.05417, , 
44.63,0.054171, , 
44.66,0.054167, , 
44.69,0.054183, , 
44.72,0.054177, , 
44.74,0.054163, , 
44.77,0.054167, , 
44.8,0.054173, , 
44.83,0.054156, , 
44.85,0.054176, , 
44.88,0.054225, , 
44.91,0.054248, , 
44.94,0.054304, , 
44.96,0.054387, , 
44.99,0.054419, , 
45.02,0.054469, , 
45.05,0.054539, , 
45.07,0.054617, , 
45.1,0.054687, , 
45.13,0.054803, , 
45.16,0.054876, , 
45.18,0.054959, , 
45.21,0.055071, , 
45.24,0.055202, , 
45.27,0.055315, , 
45.29,0.055411, , 
45.32,0.055595, , 
45.35,0.055716, , 
45.38,0.055882, , 
45.4,0.05609, , 
45.43,0.056213, , 
45.46,0.056398, , 
45.48,0.0566, , 
45.51,0.05679, , 
45.54,0.056965, , 
45.57,0.057232, , 
45.59,0.057424, , 
45.62,0.057641, , 
45.65,0.057867, , 
45.68,0.05816, , 
45.7,0.058377, , 
45.73,0.058596, , 
45.76,0.058831, , 
45.79,0.059113, , 
45.81,0.059415, , 
45.84,0.059706, , 
45.87,0.059946, , 
45.9,0.060237, , 
45.92,0.060521, , 
45.95,0.060757, , 
45.98,0.060987, , 
46.01,0.061327, , 
46.03,0.061567, , 
46.06,0.061832, , 
46.09,0.062101, , 
46.12,0.062432, , 
46.15,0.062698, , 
46.17,0.06298, , 
46.2,0.063287, , 
46.23,0.063651, , 
46.26,0.063977, , 
46.28,0.064285, , 
46.31,0.064518, , 
46.34,0.064772, , 
46.37,0.065039, , 
46.39,0.065294, , 
46.42,0.065514, , 
46.45,0.06581, , 
46.48,0.066003, , 
46.5,0.066217, , 
46.53,0.066412, , 
46.56,0.066626, , 
46.59,0.066769, , 
46.61,0.066935, , 
46.64,0.067044, , 
46.67,0.06716, , 
46.7,0.06728, , 
46.72,0.067396, , 
46.75,0.067474, , 
46.78,0.067536, , 
46.81,0.067627, , 
46.83,0.067636, , 
46.86,0.067679, , 
46.89,0.067744, , 
46.91,0.067733, , 
46.94,0.067681, , 
46.97,0.067672, , 
47,0.067647, , 
47.02,0.067589, , 
47.05,0.067532, , 
47.08,0.067477, , 
47.11,0.067381, , 
47.13,0.067316, , 
47.16,0.067219, , 
47.19,0.067088, , 
47.22,0.066975, , 
47.24,0.066874, , 
47.27,0.0667, , 
47.3,0.066549, , 
47.33,0.066381, , 
47.35,0.066256, , 
47.38,0.06602, , 
47.41,0.06588, , 
47.44,0.065696, , 
47.47,0.065524, , 
47.49,0.065343, , 
47.52,0.065194, , 
47.55,0.064972, , 
47.58,0.0648, , 
47.6,0.064547, , 
47.63,0.064302, , 
47.66,0.064127, , 
47.69,0.063959, , 
47.71,0.063705, , 
47.74,0.063507, , 
47.77,0.063322, , 
47.8,0.063154, , 
47.82,0.062916, , 
47.85,0.062737, , 
47.88,0.062524, , 
47.91,0.062323, , 
47.93,0.062108, , 
47.96,0.061916, , 
47.99,0.061678, , 
48.02,0.061493, , 
48.04,0.061237, , 
48.07,0.060972, , 
48.1,0.060758, , 
48.13,0.060565, , 
48.15,0.060285, , 
48.18,0.06003, , 
48.21,0.059809, , 
48.24,0.059604, , 
48.26,0.059358, , 
48.29,0.05916, , 
48.32,0.058933, , 
48.34,0.058734, , 
48.37,0.058533, , 
48.4,0.058385, , 
48.43,0.058216, , 
48.45,0.058087, , 
48.48,0.057922, , 
48.51,0.057765, , 
48.54,0.057659, , 
48.56,0.057586, , 
48.59,0.057438, , 
48.62,0.057331, , 
48.65,0.057212, , 
48.67,0.057036, , 
48.7,0.05694, , 
48.73,0.056854, , 
48.76,0.056724, , 
48.78,0.05658, , 
48.81,0.05646, , 
48.84,0.056355, , 
48.87,0.056172, , 
48.9,0.056045, , 
48.92,0.055893, , 
48.95,0.055749, , 
48.98,0.055586, , 
49.01,0.055471, , 
49.03,0.055307, , 
49.06,0.055184, , 
49.09,0.055033, , 
49.12,0.054877, , 
49.14,0.054781, , 
49.17,0.054699, , 
49.2,0.054563, , 
49.23,0.054432, , 
49.25,0.054359, , 
49.28,0.054262, , 
49.31,0.054112, , 
49.34,0.053998, , 
49.36,0.053892, , 
49.39,0.05378, , 
49.42,0.053675, , 
49.45,0.053579, , 
49.47,0.053452, , 
49.5,0.053366, , 
49.53,0.053273, , 
49.56,0.053146, , 
49.58,0.053051, , 
49.61,0.052963, , 
49.64,0.052837, , 
49.66,0.052731, , 
49.69,0.052627, , 
49.72,0.052531, , 
49.75,0.052412, , 
49.77,0.052324, , 
49.8,0.052225, , 
49.83,0.052125, , 
49.86,0.052022, , 
49.88,0.051951, , 
49.91,0.05182, , 
49.94,0.051753, , 
49.97,0.051678, , 
49.99,0.05158, , 
50.02,0.051513, , 
50.05,0.051458, , 
50.08,0.051376, , 
50.1,0.051284, , 
50.13,0.051227, , 
50.16,0.051148, , 
50.19,0.051051, , 
50.22,0.051017, , 
50.24,0.050935, , 
50.27,0.050861, , 
50.3,0.0508, , 
50.33,0.050739, , 
50.35,0.050639, , 
50.38,0.05059, , 
50.41,0.05052, , 
50.44,0.050426, , 
50.47,0.050368, , 
50.49,0.050347, , 
50.52,0.050261, , 
50.55,0.050191, , 
50.57,0.050145, , 
50.6,0.050082, , 
50.63,0.050044, , 
50.66,0.050001, , 
50.68,0.049927, , 
50.71,0.049828, , 
50.74,0.049772, , 
50.77,0.04974, , 
50.79,0.04967, , 
50.82,0.049625, , 
50.85,0.049586, , 
50.88,0.049525, , 
50.9,0.049462, , 
50.93,0.049412, , 
50.96,0.049337, , 
50.98,0.049302, , 
51.01,0.049253, , 
51.04,0.049203, , 
51.07,0.049152, , 
51.09,0.049107, , 
51.12,0.049033, , 
51.15,0.048959, , 
51.18,0.048924, , 
51.2,0.048878, , 
51.23,0.048787, , 
51.26,0.04873, , 
51.29,0.04866, , 
51.31,0.048596, , 
51.34,0.048552, , 
51.37,0.048509, , 
51.4,0.048412, , 
51.42,0.048366, , 
51.45,0.048324, , 
51.48,0.048254, , 
51.51,0.048206, , 
51.53,0.048188, , 
51.56,0.04811, , 
51.59,0.048026, , 
51.62,0.047988, , 
51.65,0.047935, , 
51.67,0.047839, , 
51.7,0.047794, , 
51.73,0.04774, , 
51.76,0.047681, , 
51.78,0.047651, , 
51.81,0.047642, , 
51.84,0.047585, , 
51.87,0.047547, , 
51.89,0.047506, , 
51.92,0.047435, , 
51.95,0.047415, , 
51.98,0.047416, , 
52,0.047368, , 
52.03,0.047325, , 
52.06,0.047317, , 
52.09,0.047289, , 
52.11,0.047277, , 
52.14,0.047292, , 
52.17,0.047284, , 
52.2,0.047231, , 
52.22,0.04721, , 
52.25,0.047192, , 
52.28,0.047153, , 
52.31,0.047132, , 
52.33,0.047105, , 
52.36,0.047052, , 
52.39,0.04704, , 
52.41,0.047007, , 
52.44,0.046949, , 
52.47,0.046904, , 
52.5,0.046853, , 
52.52,0.046781, , 
52.55,0.046713, , 
52.58,0.04666, , 
52.61,0.046615, , 
52.63,0.046545, , 
52.66,0.04654, , 
52.69,0.04652, , 
52.72,0.046463, , 
52.74,0.046438, , 
52.77,0.04643, , 
52.8,0.046393, , 
52.83,0.046386, , 
52.85,0.046374, , 
52.88,0.04631, , 
52.91,0.046285, , 
52.94,0.046302, , 
52.97,0.046282, , 
52.99,0.046258, , 
53.02,0.0463, , 
53.05,0.0463, , 
53.08,0.046276, , 
53.1,0.046282, , 
53.13,0.046282, , 
53.16,0.046274, , 
53.19,0.046279, , 
53.21,0.046292, , 
53.24,0.046262, , 
53.27,0.046261, , 
53.3,0.046288, , 
53.32,0.04629, , 
53.35,0.046312, , 
53.38,0.046364, , 
53.41,0.046392, , 
53.43,0.046395, , 
53.46,0.046442, , 
53.49,0.046477, , 
53.52,0.046487, , 
53.54,0.046534, , 
53.57,0.046578, , 
53.6,0.046598, , 
53.63,0.046662, , 
53.65,0.046723, , 
53.68,0.046763, , 
53.71,0.046857, , 
53.73,0.046915, , 
53.76,0.046976, , 
53.79,0.047062, , 
53.82,0.047175, , 
53.84,0.047239, , 
53.87,0.047314, , 
53.9,0.047481, , 
53.93,0.047572, , 
53.95,0.047652, , 
53.98,0.047777, , 
54.01,0.047893, , 
54.04,0.047969, , 
54.06,0.048102, , 
54.09,0.04822, , 
54.12,0.048312, , 
54.15,0.048428, , 
54.17,0.048556, , 
54.2,0.048657, , 
54.23,0.04878, , 
54.26,0.048907, , 
54.28,0.049, , 
54.31,0.04908, , 
54.34,0.049222, , 
54.37,0.04931, , 
54.4,0.049406, , 
54.42,0.049503, , 
54.45,0.049608, , 
54.48,0.049676, , 
54.51,0.049801, , 
54.53,0.049845, , 
54.56,0.049918, , 
54.59,0.05001, , 
54.62,0.050063, , 
54.64,0.0501, , 
54.67,0.050171, , 
54.7,0.05024, , 
54.73,0.050247, , 
54.75,0.0503, , 
54.78,0.05033, , 
54.81,0.05037, , 
54.84,0.050394, , 
54.86,0.050403, , 
54.89,0.050357, , 
54.92,0.050324, , 
54.95,0.050308, , 
54.97,0.050302, , 
55,0.050251, , 
55.04,0.050241, , 
55.06,0.050216, , 
55.08,0.050122, , 
55.11,0.050068, , 
55.14,0.050019, , 
55.16,0.049924, , 
55.19,0.049869, , 
55.22,0.04981, , 
55.25,0.049693, , 
55.27,0.049612, , 
55.3,0.049573, , 
55.33,0.049426, , 
55.36,0.049329, , 
55.38,0.04924, , 
55.41,0.049109, , 
55.44,0.048995, , 
55.47,0.048903, , 
55.49,0.04878, , 
55.52,0.048649, , 
55.55,0.048622, , 
55.58,0.048481, , 
55.6,0.048305, , 
55.63,0.048197, , 
55.66,0.048082, , 
55.69,0.047939, , 
55.72,0.04783, , 
55.74,0.047732, , 
55.77,0.047584, , 
55.8,0.04749, , 
55.83,0.047356, , 
55.85,0.04723, , 
55.88,0.047117, , 
55.91,0.047024, , 
55.94,0.046862, , 
55.96,0.046725, , 
55.99,0.046628, , 
56.02,0.046534, , 
56.05,0.046387, , 
56.07,0.046278, , 
56.1,0.046169, , 
56.13,0.046034, , 
56.16,0.045929, , 
56.18,0.045824, , 
56.21,0.045688, , 
56.24,0.0456, , 
56.27,0.045512, , 
56.29,0.045384, , 
56.32,0.045257, , 
56.35,0.045196, , 
56.38,0.045076, , 
56.4,0.04498, , 
56.43,0.044894, , 
56.46,0.044806, , 
56.48,0.044679, , 
56.51,0.044592, , 
56.54,0.044508, , 
56.57,0.044424, , 
56.59,0.044348, , 
56.62,0.044273, , 
56.65,0.044176, , 
56.68,0.044114, , 
56.7,0.044035, , 
56.73,0.043923, , 
56.76,0.043837, , 
56.79,0.043786, , 
56.81,0.043695, , 
56.84,0.043617, , 
56.87,0.043568, , 
56.9,0.043504, , 
56.92,0.043397, , 
56.95,0.04336, , 
56.98,0.0433, , 
57.01,0.043246, , 
57.03,0.043194, , 
57.06,0.043125, , 
57.09,0.043029, , 
57.12,0.042972, , 
57.15,0.042928, , 
57.17,0.042833, , 
57.2,0.042784, , 
57.23,0.042749, , 
57.26,0.042671, , 
57.28,0.04261, , 
57.31,0.04255, , 
57.34,0.042463, , 
57.37,0.042411, , 
57.39,0.042382, , 
57.42,0.042333, , 
57.45,0.042279, , 
57.48,0.042239, , 
57.5,0.042201, , 
57.53,0.042129, , 
57.56,0.042077, , 
57.59,0.04201, , 
57.61,0.041949, , 
57.64,0.041919, , 
57.67,0.041897, , 
57.7,0.041831, , 
57.72,0.041805, , 
57.75,0.041777, , 
57.78,0.0417, , 
57.81,0.041642, , 
57.83,0.041614, , 
57.86,0.041554, , 
57.89,0.041509, , 
57.91,0.041486, , 
57.94,0.041445, , 
57.97,0.041362, , 
58,0.041326, , 
58.02,0.04129, , 
58.05,0.041233, , 
58.08,0.041195, , 
58.11,0.041149, , 
58.13,0.04107, , 
58.16,0.041034, , 
58.19,0.040993, , 
58.22,0.040942, , 
58.24,0.040927, , 
58.27,0.040925, , 
58.3,0.040862, , 
58.33,0.040812, , 
58.35,0.040823, , 
58.38,0.040785, , 
58.41,0.04072, , 
58.44,0.040693, , 
58.47,0.040675, , 
58.49,0.040627, , 
58.52,0.040578, , 
58.55,0.040567, , 
58.58,0.040534, , 
58.6,0.040517, , 
58.63,0.040482, , 
58.66,0.040429, , 
58.69,0.040406, , 
58.71,0.040399, , 
58.74,0.040342, , 
58.77,0.040315, , 
58.8,0.040321, , 
58.82,0.040293, , 
58.85,0.040241, , 
58.88,0.04022, , 
58.91,0.040188, , 
58.93,0.040153, , 
58.96,0.040147, , 
58.99,0.04015, , 
59.02,0.04011, , 
59.04,0.040089, , 
59.07,0.040073, , 
59.1,0.04003, , 
59.13,0.040027, , 
59.15,0.040031, , 
59.18,0.040001, , 
59.21,0.039973, , 
59.23,0.039947, , 
59.26,0.039923, , 
59.29,0.039908, , 
59.32,0.039911, , 
59.35,0.039904, , 
59.37,0.03989, , 
59.4,0.0399, , 
59.43,0.039902, , 
59.45,0.039875, , 
59.48,0.039912, , 
59.51,0.039921, , 
59.54,0.03994, , 
59.56,0.039992, , 
59.59,0.040038, , 
59.62,0.040028, , 
59.65,0.040041, , 
59.67,0.040055, , 
59.7,0.040076, , 
59.73,0.040106, , 
59.76,0.040133, , 
59.78,0.04014, , 
59.81,0.040136, , 
59.84,0.040171, , 
59.87,0.040195, , 
59.9,0.040225, , 
59.92,0.040282, , 
59.95,0.040284, , 
59.98,0.040275, , 
60.01,0.040321, , 
60.03,0.040372, , 
60.06,0.040373, , 
60.09,0.040395, , 
60.12,0.040412, , 
60.14,0.040402, , 
60.17,0.040405, , 
60.2,0.040438, , 
60.23,0.040483, , 
60.25,0.040496, , 
60.28,0.040529, , 
60.31,0.040533, , 
60.34,0.040512, , 
60.36,0.040525, , 
60.39,0.040539, , 
60.42,0.040533, , 
60.45,0.040536, , 
60.47,0.040536, , 
60.5,0.040519, , 
60.53,0.040523, , 
60.56,0.040521, , 
60.58,0.040471, , 
60.61,0.040448, , 
60.64,0.040431, , 
60.66,0.040405, , 
60.69,0.040396, , 
60.72,0.040416, , 
60.75,0.040373, , 
60.77,0.040322, , 
60.8,0.040306, , 
60.83,0.040272, , 
60.86,0.040212, , 
60.88,0.040186, , 
60.91,0.040149, , 
60.94,0.040075, , 
60.97,0.040052, , 
60.99,0.040027, , 
61.02,0.039982, , 
61.05,0.039925, , 
61.08,0.039898, , 
61.1,0.039834, , 
61.13,0.039781, , 
61.16,0.039723, , 
61.19,0.039657, , 
61.22,0.039598, , 
61.24,0.039577, , 
61.27,0.039535, , 
61.3,0.039456, , 
61.33,0.03941, , 
61.35,0.039341, , 
61.38,0.039289, , 
61.41,0.039237, , 
61.44,0.039185, , 
61.46,0.039097, , 
61.49,0.039041, , 
61.52,0.03899, , 
61.55,0.038914, , 
61.58,0.038856, , 
61.6,0.038822, , 
61.63,0.038747, , 
61.66,0.038683, , 
61.68,0.038644, , 
61.71,0.038593, , 
61.74,0.038553, , 
61.77,0.0385, , 
61.79,0.038439, , 
61.82,0.038346, , 
61.85,0.038297, , 
61.88,0.038269, , 
61.9,0.038202, , 
61.93,0.038172, , 
61.96,0.03814, , 
61.98,0.03809, , 
62.02,0.038045, , 
62.04,0.038025, , 
62.07,0.037961, , 
62.09,0.037918, , 
62.12,0.037878, , 
62.15,0.037815, , 
62.18,0.037765, , 
62.2,0.037735, , 
62.23,0.037704, , 
62.26,0.037642, , 
62.29,0.037612, , 
62.32,0.03759, , 
62.34,0.037534, , 
62.37,0.037496, , 
62.4,0.037457, , 
62.42,0.037416, , 
62.45,0.037377, , 
62.48,0.037361, , 
62.51,0.037303, , 
62.53,0.037285, , 
62.56,0.037286, , 
62.59,0.037224, , 
62.62,0.03718, , 
62.65,0.037159, , 
62.67,0.037126, , 
62.7,0.037075, , 
62.73,0.037071, , 
62.76,0.037057, , 
62.78,0.037008, , 
62.81,0.036976, , 
62.84,0.036956, , 
62.87,0.036933, , 
62.89,0.036889, , 
62.92,0.036872, , 
62.95,0.036821, , 
62.98,0.036794, , 
63,0.036779, , 
63.03,0.036743, , 
63.06,0.036697, , 
63.09,0.036685, , 
63.11,0.036675, , 
63.14,0.036631, , 
63.17,0.036602, , 
63.2,0.036567, , 
63.22,0.036542, , 
63.25,0.036537, , 
63.28,0.036512, , 
63.31,0.036448, , 
63.33,0.036429, , 
63.36,0.036442, , 
63.39,0.036415, , 
63.41,0.03639, , 
63.44,0.036374, , 
63.47,0.036314, , 
63.5,0.03629, , 
63.52,0.036301, , 
63.55,0.036278, , 
63.58,0.036266, , 
63.61,0.036284, , 
63.63,0.036292, , 
63.66,0.036251, , 
63.69,0.036236, , 
63.72,0.036211, , 
63.74,0.036164, , 
63.77,0.036169, , 
63.8,0.036171, , 
63.83,0.036153, , 
63.85,0.036113, , 
63.88,0.036085, , 
63.91,0.03603, , 
63.94,0.036021, , 
63.97,0.036042, , 
63.99,0.03602, , 
64.02,0.035974, , 
64.05,0.035953, , 
64.08,0.03592, , 
64.1,0.035894, , 
64.13,0.035908, , 
64.16,0.03591, , 
64.19,0.035888, , 
64.21,0.0359, , 
64.24,0.035907, , 
64.27,0.035907, , 
64.3,0.03589, , 
64.32,0.035881, , 
64.35,0.035834, , 
64.38,0.035801, , 
64.41,0.035798, , 
64.43,0.035781, , 
64.46,0.035746, , 
64.49,0.035781, , 
64.52,0.035788, , 
64.54,0.035773, , 
64.57,0.035785, , 
64.6,0.035791, , 
64.63,0.035777, , 
64.65,0.035785, , 
64.68,0.035783, , 
64.71,0.03577, , 
64.73,0.035777, , 
64.76,0.03579, , 
64.79,0.03578, , 
64.82,0.035768, , 
64.84,0.035793, , 
64.87,0.03578, , 
64.9,0.035768, , 
64.93,0.035777, , 
64.95,0.035773, , 
64.98,0.03576, , 
65.01,0.03577, , 
65.04,0.035781, , 
65.06,0.035762, , 
65.09,0.035779, , 
65.12,0.035781, , 
65.15,0.035772, , 
65.17,0.035768, , 
65.2,0.035779, , 
65.23,0.03577, , 
65.26,0.03576, , 
65.28,0.03577, , 
65.31,0.035777, , 
65.34,0.035754, , 
65.37,0.03578, , 
65.39,0.035783, , 
65.42,0.035746, , 
65.45,0.035755, , 
65.48,0.035773, , 
65.5,0.035743, , 
65.53,0.035729, , 
65.56,0.035707, , 
65.59,0.035664, , 
65.61,0.035649, , 
65.64,0.035653, , 
65.67,0.035629, , 
65.7,0.035573, , 
65.72,0.035557, , 
65.75,0.035529, , 
65.78,0.035505, , 
65.81,0.035483, , 
65.83,0.035431, , 
65.86,0.035389, , 
65.89,0.035377, , 
65.92,0.035328, , 
65.94,0.035286, , 
65.97,0.035286, , 
66,0.035272, , 
66.03,0.035251, , 
66.06,0.035205, , 
66.08,0.035188, , 
66.11,0.035164, , 
66.14,0.035141, , 
66.17,0.035139, , 
66.19,0.035097, , 
66.22,0.035058, , 
66.25,0.035059, , 
66.28,0.035034, , 
66.3,0.034994, , 
66.33,0.034978, , 
66.36,0.034954, , 
66.39,0.034928, , 
66.41,0.034914, , 
66.44,0.034891, , 
66.47,0.034818, , 
66.5,0.034804, , 
66.52,0.034793, , 
66.55,0.034743, , 
66.58,0.034714, , 
66.61,0.034702, , 
66.63,0.034657, , 
66.66,0.034641, , 
66.69,0.034658, , 
66.72,0.034645, , 
66.74,0.034633, , 
66.77,0.034649, , 
66.8,0.034594, , 
66.83,0.03455, , 
66.85,0.03454, , 
66.88,0.03454, , 
66.91,0.034523, , 
66.94,0.034525, , 
66.96,0.034507, , 
66.99,0.034445, , 
67.02,0.034429, , 
67.05,0.034417, , 
67.07,0.034399, , 
67.1,0.034392, , 
67.13,0.034404, , 
67.16,0.034363, , 
67.18,0.034303, , 
67.21,0.034302, , 
67.24,0.034298, , 
67.27,0.034273, , 
67.29,0.034271, , 
67.32,0.034225, , 
67.35,0.03417, , 
67.38,0.034163, , 
67.4,0.034166, , 
67.43,0.034142, , 
67.46,0.034151, , 
67.48,0.034148, , 
67.51,0.034103, , 
67.54,0.034044, , 
67.57,0.034052, , 
67.59,0.034034, , 
67.62,0.034008, , 
67.65,0.034021, , 
67.68,0.034028, , 
67.7,0.034011, , 
67.73,0.034028, , 
67.76,0.034022, , 
67.79,0.034008, , 
67.81,0.034026, , 
67.84,0.034031, , 
67.87,0.034016, , 
67.9,0.034012, , 
67.92,0.034008, , 
67.95,0.03394, , 
67.98,0.033913, , 
68.01,0.033911, , 
68.03,0.033894, , 
68.06,0.033886, , 
68.09,0.0339, , 
68.12,0.033895, , 
68.14,0.033878, , 
68.17,0.033897, , 
68.2,0.033887, , 
68.23,0.03389, , 
68.25,0.033901, , 
68.28,0.033898, , 
68.31,0.033879, , 
68.34,0.033892, , 
68.36,0.033902, , 
68.39,0.033854, , 
68.42,0.033809, , 
68.45,0.033795, , 
68.47,0.03376, , 
68.5,0.033759, , 
68.53,0.033778, , 
68.56,0.033777, , 
68.58,0.033759, , 
68.61,0.033778, , 
68.64,0.033769, , 
68.67,0.033751, , 
68.69,0.033763, , 
68.72,0.033768, , 
68.75,0.033743, , 
68.78,0.033772, , 
68.81,0.033775, , 
68.83,0.033754, , 
68.86,0.033718, , 
68.89,0.033693, , 
68.92,0.03365, , 
68.94,0.033644, , 
68.97,0.033661, , 
69,0.033642, , 
69.03,0.033636, , 
69.05,0.033632, , 
69.08,0.033576, , 
69.11,0.033554, , 
69.14,0.033554, , 
69.16,0.033524, , 
69.19,0.033497, , 
69.22,0.033535, , 
69.25,0.033532, , 
69.27,0.033504, , 
69.3,0.033518, , 
69.33,0.033533, , 
69.36,0.033519, , 
69.38,0.033513, , 
69.41,0.03348, , 
69.44,0.033426, , 
69.47,0.033403, , 
69.49,0.03341, , 
69.52,0.033403, , 
69.55,0.033382, , 
69.58,0.03336, , 
69.6,0.033305, , 
69.63,0.033269, , 
69.66,0.033269, , 
69.69,0.033272, , 
69.71,0.033258, , 
69.74,0.03324, , 
69.77,0.033203, , 
69.8,0.033157, , 
69.82,0.033152, , 
69.85,0.033156, , 
69.88,0.033139, , 
69.91,0.033116, , 
69.93,0.033091, , 
69.96,0.03304, , 
69.99,0.033032, , 
70.02,0.033034, , 
70.04,0.033029, , 
70.07,0.033022, , 
70.1,0.032998, , 
70.13,0.032945, , 
70.15,0.032899, , 
70.18,0.032899, , 
70.21,0.032906, , 
70.23,0.032892, , 
70.26,0.032908, , 
70.29,0.032908, , 
70.32,0.032888, , 
70.34,0.032884, , 
70.37,0.032894, , 
70.4,0.032879, , 
70.43,0.032877, , 
70.45,0.032872, , 
70.48,0.032824, , 
70.51,0.032784, , 
70.54,0.032793, , 
70.56,0.032773, , 
70.59,0.032766, , 
70.62,0.032776, , 
70.65,0.032734, , 
70.67,0.032689, , 
70.7,0.032666, , 
70.73,0.03267, , 
70.76,0.032659, , 
70.78,0.032662, , 
70.81,0.032666, , 
70.84,0.032634, , 
70.87,0.032588, , 
70.89,0.032569, , 
70.92,0.032533, , 
70.95,0.032524, , 
70.98,0.032539, , 
71,0.03253, , 
71.03,0.032524, , 
71.06,0.032544, , 
71.09,0.032524, , 
71.11,0.0325, , 
71.14,0.032477, , 
71.17,0.032421, , 
71.2,0.032399, , 
71.22,0.03241, , 
71.25,0.032411, , 
71.28,0.03239, , 
71.31,0.032399, , 
71.33,0.032401, , 
71.36,0.032374, , 
71.39,0.032325, , 
71.42,0.032315, , 
71.44,0.032281, , 
71.47,0.032272, , 
71.5,0.032276, , 
71.53,0.032253, , 
71.56,0.0322, , 
71.58,0.032184, , 
71.61,0.032171, , 
71.64,0.032151, , 
71.67,0.032155, , 
71.69,0.032139, , 
71.72,0.032089, , 
71.75,0.03206, , 
71.78,0.032041, , 
71.8,0.032021, , 
71.83,0.032023, , 
71.86,0.031985, , 
71.89,0.031929, , 
71.91,0.031912, , 
71.94,0.031901, , 
71.97,0.031875, , 
72,0.03187, , 
72.02,0.031841, , 
72.05,0.031801, , 
72.08,0.03178, , 
72.11,0.031796, , 
72.13,0.031782, , 
72.16,0.031767, , 
72.19,0.031776, , 
72.22,0.031778, , 
72.24,0.031761, , 
72.27,0.031769, , 
72.3,0.031753, , 
72.33,0.031679, , 
72.35,0.03167, , 
72.38,0.031669, , 
72.41,0.031645, , 
72.44,0.031642, , 
72.46,0.031647, , 
72.49,0.031617, , 
72.52,0.031563, , 
72.55,0.031555, , 
72.57,0.03153, , 
72.6,0.031516, , 
72.63,0.0315, , 
72.66,0.031452, , 
72.69,0.031401, , 
72.71,0.031401, , 
72.74,0.031399, , 
72.77,0.031353, , 
72.79,0.031313, , 
72.82,0.031279, , 
72.85,0.03127, , 
72.88,0.031277, , 
72.9,0.031272, , 
72.93,0.031245, , 
72.96,0.031218, , 
72.98,0.031202, , 
73.01,0.03115, , 
73.04,0.03115, , 
73.07,0.031158, , 
73.09,0.031136, , 
73.13,0.031109, , 
73.15,0.031145, , 
73.18,0.031141, , 
73.2,0.031123, , 
73.23,0.031092, , 
73.26,0.031046, , 
73.29,0.03102, , 
73.31,0.031024, , 
73.34,0.03102, , 
73.37,0.030998, , 
73.4,0.030993, , 
73.43,0.030955, , 
73.45,0.030897, , 
73.48,0.030892, , 
73.51,0.030903, , 
73.53,0.030887, , 
73.56,0.030839, , 
73.59,0.030821, , 
73.62,0.030781, , 
73.64,0.030768, , 
73.67,0.03076, , 
73.7,0.030723, , 
73.73,0.030682, , 
73.75,0.030671, , 
73.78,0.030657, , 
73.81,0.030636, , 
73.84,0.030653, , 
73.87,0.030649, , 
73.89,0.030619, , 
73.92,0.030633, , 
73.95,0.030591, , 
73.97,0.030546, , 
74,0.030535, , 
74.03,0.030534, , 
74.06,0.030514, , 
74.08,0.030486, , 
74.11,0.030452, , 
74.14,0.030414, , 
74.17,0.030402, , 
74.19,0.030402, , 
74.22,0.030367, , 
74.25,0.030312, , 
74.28,0.03031, , 
74.31,0.030285, , 
74.33,0.030254, , 
74.36,0.030234, , 
74.39,0.030186, , 
74.42,0.03016, , 
74.44,0.03016, , 
74.47,0.030156, , 
74.5,0.030125, , 
74.53,0.030114, , 
74.55,0.030081, , 
74.58,0.030028, , 
74.61,0.03003, , 
74.64,0.030029, , 
74.66,0.030014, , 
74.69,0.030023, , 
74.72,0.030044, , 
74.75,0.03002, , 
74.77,0.03001, , 
74.8,0.030018, , 
74.83,0.029989, , 
74.86,0.029934, , 
74.88,0.029923, , 
74.91,0.029913, , 
74.94,0.029887, , 
74.97,0.029893, , 
74.99,0.029865, , 
75.02,0.029822, , 
75.05,0.029781, , 
75.08,0.029772, , 
75.1,0.029755, , 
75.13,0.029755, , 
75.16,0.029722, , 
75.19,0.029668, , 
75.21,0.029649, , 
75.24,0.029648, , 
75.27,0.029593, , 
75.3,0.029549, , 
75.32,0.029545, , 
75.35,0.029514, , 
75.38,0.029459, , 
75.41,0.029432, , 
75.43,0.029399, , 
75.46,0.029358, , 
75.49,0.029329, , 
75.52,0.029297, , 
75.54,0.029254, , 
75.57,0.029227, , 
75.6,0.029182, , 
75.63,0.029134, , 
75.65,0.029114, , 
75.68,0.029083, , 
75.71,0.02903, , 
75.73,0.029003, , 
75.76,0.028965, , 
75.79,0.028921, , 
75.82,0.028895, , 
75.84,0.02891, , 
75.87,0.028875, , 
75.9,0.028845, , 
75.93,0.028814, , 
75.95,0.028785, , 
75.98,0.028773, , 
76.01,0.028772, , 
76.04,0.028729, , 
76.06,0.028678, , 
76.1,0.028675, , 
76.12,0.02866, , 
76.15,0.028615, , 
76.17,0.028578, , 
76.2,0.02855, , 
76.23,0.028518, , 
76.26,0.028526, , 
76.28,0.028518, , 
76.31,0.028462, , 
76.34,0.028437, , 
76.37,0.028431, , 
76.39,0.028404, , 
76.42,0.028391, , 
76.45,0.028405, , 
76.48,0.028391, , 
76.5,0.028395, , 
76.54,0.028408, , 
76.56,0.028412, , 
76.59,0.028397, , 
76.61,0.028391, , 
76.64,0.028352, , 
76.67,0.028289, , 
76.7,0.028281, , 
76.72,0.028282, , 
76.75,0.028274, , 
76.78,0.028271, , 
76.81,0.028283, , 
76.84,0.028251, , 
76.86,0.028239, , 
76.89,0.028204, , 
76.92,0.028144, , 
76.94,0.028153, , 
76.97,0.028165, , 
77,0.028158, , 
77.03,0.028156, , 
77.06,0.028167, , 
77.08,0.028154, , 
77.11,0.028144, , 
77.14,0.02815, , 
77.17,0.028115, , 
77.19,0.028057, , 
77.22,0.028049, , 
77.25,0.028029, , 
77.28,0.028011, , 
77.3,0.028017, , 
77.33,0.028028, , 
77.36,0.028, , 
77.39,0.027982, , 
77.41,0.027948, , 
77.44,0.02791, , 
77.47,0.027906, , 
77.5,0.027914, , 
77.52,0.027896, , 
77.55,0.027889, , 
77.58,0.027914, , 
77.61,0.027898, , 
77.63,0.027881, , 
77.66,0.027903, , 
77.69,0.027898, , 
77.72,0.027877, , 
77.74,0.027869, , 
77.77,0.027823, , 
77.8,0.027778, , 
77.83,0.027782, , 
77.85,0.027774, , 
77.88,0.027764, , 
77.91,0.027768, , 
77.94,0.02778, , 
77.96,0.027764, , 
77.99,0.027777, , 
78.02,0.027784, , 
78.05,0.027763, , 
78.07,0.027766, , 
78.1,0.027787, , 
78.13,0.027767, , 
78.16,0.027763, , 
78.18,0.027787, , 
78.21,0.02777, , 
78.24,0.027765, , 
78.27,0.027776, , 
78.29,0.02776, , 
78.32,0.027752, , 
78.35,0.027763, , 
78.38,0.027764, , 
78.4,0.027739, , 
78.43,0.027737, , 
78.46,0.027718, , 
78.46,0.027718, , 
78.59,0.027681, , 