Gradient Profiler Text Data File: 20160111_Andreev_minusrnase.csv,,,
Version: 1.88,,,
Date: 2016-01-11,,,
Time: 20:02:21,,,
,,,
User: Alicia,,,
Experiment name: 20160111_rnaseicheck_2,,,
UV Unit: EM-1,,,
Rotor Manufacturer: Beckman,,,
Rotor Model: SW41Ti,,,
Speed: 35000 rpm,,,
Gradient: sucrose 10.0% to 50.0% w/v,,,
Time: 180,,,
w2t:  x 10^0,,,
Sample Volume: 0.16 ml,,,
Number of Tubes: 8,,,
Volume per mm: 0.143 ml/mm,,,
Temperature: 4.0 deg C,,,
,,,
Absorbance Units Full Scale (AUFS): 0.50,,,
Manual-triggered gradient; (with distance; but no event marks),,,
Delay: No Delay,,,
UV Wavelength: 254 nm,,,
Samples / sec: 8 Hz,,,
EM1 Speed: 0.22 mm/sec,,,
Distance: 2.02 mm,,,
Number: 52,,,
Dead Volume: 0.000000 ml; Distance due to Dead Volume: 0.00 mm,,,
Length of Tubing: 0 mm,,,
Total Distance: 105.04 mm,,,
,,,
Data Columns:,,,
Distance, Absorbance,,
0.03,0.01337, , 
0.06,0.013369, , 
0.08,0.01341, , 
0.11,0.013382, , 
0.14,0.013379, , 
0.17,0.013395, , 
0.19,0.013377, , 
0.22,0.013372, , 
0.25,0.013397, , 
0.28,0.013376, , 
0.3,0.01337, , 
0.33,0.013388, , 
0.36,0.013386, , 
0.39,0.013378, , 
0.41,0.013388, , 
0.44,0.013395, , 
0.47,0.01338, , 
0.5,0.013393, , 
0.52,0.013385, , 
0.55,0.013364, , 
0.58,0.013382, , 
0.6,0.013398, , 
0.64,0.013395, , 
0.66,0.013375, , 
0.69,0.013392, , 
0.71,0.013386, , 
0.74,0.013374, , 
0.77,0.013388, , 
0.8,0.013383, , 
0.82,0.013389, , 
0.85,0.013396, , 
0.88,0.013384, , 
0.91,0.01338, , 
0.94,0.013396, , 
0.96,0.013394, , 
0.99,0.01337, , 
1.02,0.01339, , 
1.04,0.013389, , 
1.07,0.013365, , 
1.1,0.013386, , 
1.13,0.013397, , 
1.16,0.013376, , 
1.18,0.013386, , 
1.21,0.013397, , 
1.24,0.01337, , 
1.26,0.01337, , 
1.29,0.013388, , 
1.32,0.013365, , 
1.35,0.013375, , 
1.38,0.013392, , 
1.4,0.013377, , 
1.43,0.013376, , 
1.46,0.013401, , 
1.49,0.013385, , 
1.51,0.013367, , 
1.54,0.013395, , 
1.57,0.01339, , 
1.6,0.013378, , 
1.62,0.013385, , 
1.65,0.013396, , 
1.68,0.013373, , 
1.71,0.013378, , 
1.73,0.01339, , 
1.76,0.013374, , 
1.79,0.01339, , 
1.81,0.013395, , 
1.84,0.013377, , 
1.87,0.013376, , 
1.9,0.013405, , 
1.93,0.013376, , 
1.95,0.013378, , 
1.98,0.013394, , 
2.01,0.013389, , 
2.04,0.013382, , 
2.06,0.013636, , 
2.09,0.015007, , 
2.12,0.018381, , 
2.15,0.02255, , 
2.17,0.02739, , 
2.2,0.031346, , 
2.23,0.034351, , 
2.25,0.036718, , 
2.28,0.038505, , 
2.31,0.040605, , 
2.34,0.044617, , 
2.37,0.054032, , 
2.39,0.067263, , 
2.42,0.078698, , 
2.45,0.085476, , 
2.48,0.089752, , 
2.5,0.09075, , 
2.53,0.08962, , 
2.56,0.088445, , 
2.59,0.090885, , 
2.61,0.101421, , 
2.64,0.119303, , 
2.67,0.139364, , 
2.69,0.154565, , 
2.72,0.161468, , 
2.75,0.159503, , 
2.78,0.151356, , 
2.81,0.143654, , 
2.83,0.13916, , 
2.86,0.13707, , 
2.89,0.136285, , 
2.92,0.136085, , 
2.94,0.136081, , 
2.97,0.132987, , 
3,0.122797, , 
3.02,0.108626, , 
3.05,0.091072, , 
3.08,0.079321, , 
3.11,0.077102, , 
3.13,0.081928, , 
3.16,0.087589, , 
3.19,0.090869, , 
3.22,0.092997, , 
3.25,0.094327, , 
3.27,0.095406, , 
3.3,0.096365, , 
3.33,0.097158, , 
3.36,0.098125, , 
3.38,0.099079, , 
3.41,0.099948, , 
3.44,0.100794, , 
3.46,0.100898, , 
3.49,0.098469, , 
3.52,0.09324, , 
3.55,0.089404, , 
3.58,0.088612, , 
3.6,0.090019, , 
3.63,0.09216, , 
3.66,0.094915, , 
3.69,0.097704, , 
3.71,0.100335, , 
3.74,0.102575, , 
3.77,0.10427, , 
3.79,0.105952, , 
3.82,0.107306, , 
3.85,0.108413, , 
3.88,0.109369, , 
3.9,0.110201, , 
3.93,0.11078, , 
3.96,0.111358, , 
3.99,0.1118, , 
4.01,0.112074, , 
4.04,0.112309, , 
4.07,0.112522, , 
4.1,0.112699, , 
4.13,0.112853, , 
4.15,0.113022, , 
4.18,0.113153, , 
4.21,0.113286, , 
4.24,0.11342, , 
4.26,0.113527, , 
4.29,0.113631, , 
4.32,0.113765, , 
4.34,0.113868, , 
4.37,0.113932, , 
4.4,0.114023, , 
4.43,0.114101, , 
4.46,0.114149, , 
4.48,0.114239, , 
4.51,0.114306, , 
4.54,0.114361, , 
4.57,0.114447, , 
4.59,0.114527, , 
4.62,0.114556, , 
4.65,0.114616, , 
4.67,0.1147, , 
4.7,0.114743, , 
4.73,0.114776, , 
4.76,0.114852, , 
4.79,0.114878, , 
4.81,0.114885, , 
4.84,0.114948, , 
4.87,0.115006, , 
4.89,0.115022, , 
4.92,0.115096, , 
4.95,0.115142, , 
4.98,0.11514, , 
5,0.115158, , 
5.03,0.115201, , 
5.06,0.115231, , 
5.09,0.115287, , 
5.12,0.115349, , 
5.14,0.115367, , 
5.17,0.115401, , 
5.2,0.115461, , 
5.22,0.115477, , 
5.25,0.115498, , 
5.28,0.115543, , 
5.31,0.115567, , 
5.34,0.115597, , 
5.36,0.115639, , 
5.39,0.115662, , 
5.42,0.115698, , 
5.45,0.115751, , 
5.47,0.115781, , 
5.5,0.115793, , 
5.53,0.115866, , 
5.55,0.115906, , 
5.58,0.115916, , 
5.61,0.115963, , 
5.64,0.116017, , 
5.67,0.116026, , 
5.69,0.116029, , 
5.72,0.116058, , 
5.75,0.116078, , 
5.78,0.116115, , 
5.8,0.116164, , 
5.83,0.116162, , 
5.86,0.116171, , 
5.88,0.116231, , 
5.91,0.116273, , 
5.94,0.116269, , 
5.97,0.116312, , 
6,0.116321, , 
6.02,0.116328, , 
6.05,0.116392, , 
6.08,0.116425, , 
6.11,0.116442, , 
6.14,0.116499, , 
6.16,0.116533, , 
6.19,0.116541, , 
6.21,0.116597, , 
6.24,0.116649, , 
6.27,0.116656, , 
6.3,0.116668, , 
6.33,0.116692, , 
6.35,0.116704, , 
6.38,0.116739, , 
6.41,0.11679, , 
6.43,0.116791, , 
6.46,0.116794, , 
6.49,0.11684, , 
6.52,0.116881, , 
6.54,0.116891, , 
6.58,0.116921, , 
6.6,0.116929, , 
6.63,0.116937, , 
6.66,0.117381, , 
6.68,0.120969, , 
6.71,0.130926, , 
6.74,0.144324, , 
6.76,0.162421, , 
6.79,0.181651, , 
6.82,0.201258, , 
6.85,0.221231, , 
6.88,0.241302, , 
6.9,0.25902, , 
6.93,0.279281, , 
6.96,0.299663, , 
6.99,0.320163, , 
7.01,0.340789, , 
7.04,0.358636, , 
7.07,0.376306, , 
7.09,0.388167, , 
7.12,0.394401, , 
7.15,0.397424, , 
7.18,0.398964, , 
7.21,0.40023, , 
7.23,0.401296, , 
7.26,0.402347, , 
7.29,0.403352, , 
7.32,0.404247, , 
7.34,0.405, , 
7.37,0.405857, , 
7.4,0.406658, , 
7.42,0.407405, , 
7.45,0.408133, , 
7.48,0.408715, , 
7.51,0.409336, , 
7.54,0.409989, , 
7.56,0.410633, , 
7.59,0.411216, , 
7.62,0.411706, , 
7.64,0.412225, , 
7.67,0.412719, , 
7.7,0.413225, , 
7.73,0.413698, , 
7.75,0.414107, , 
7.78,0.414458, , 
7.81,0.4149, , 
7.84,0.415314, , 
7.87,0.415734, , 
7.89,0.416151, , 
7.92,0.416459, , 
7.95,0.416823, , 
7.97,0.417212, , 
8,0.41753, , 
8.03,0.417898, , 
8.06,0.41827, , 
8.09,0.418619, , 
8.11,0.418971, , 
8.14,0.419376, , 
8.17,0.419771, , 
8.2,0.420135, , 
8.22,0.420466, , 
8.25,0.420873, , 
8.28,0.421212, , 
8.3,0.421633, , 
8.33,0.422056, , 
8.36,0.422404, , 
8.39,0.422777, , 
8.41,0.423198, , 
8.44,0.42356, , 
8.47,0.423893, , 
8.5,0.424217, , 
8.53,0.424459, , 
8.55,0.424734, , 
8.58,0.425038, , 
8.61,0.425278, , 
8.63,0.425485, , 
8.66,0.425637, , 
8.69,0.42571, , 
8.72,0.425696, , 
8.74,0.4257, , 
8.77,0.425645, , 
8.8,0.42549, , 
8.83,0.425347, , 
8.86,0.425151, , 
8.88,0.424875, , 
8.91,0.424523, , 
8.94,0.424146, , 
8.96,0.423776, , 
8.99,0.423274, , 
9.02,0.4228, , 
9.05,0.422166, , 
9.07,0.421485, , 
9.1,0.420891, , 
9.13,0.420152, , 
9.16,0.419324, , 
9.19,0.418465, , 
9.21,0.417518, , 
9.24,0.416476, , 
9.27,0.415569, , 
9.29,0.414481, , 
9.32,0.413279, , 
9.35,0.412038, , 
9.38,0.410733, , 
9.4,0.409514, , 
9.43,0.408077, , 
9.46,0.406595, , 
9.49,0.405013, , 
9.52,0.403391, , 
9.55,0.401737, , 
9.57,0.400201, , 
9.6,0.398423, , 
9.63,0.396588, , 
9.65,0.394657, , 
9.68,0.39266, , 
9.71,0.390876, , 
9.73,0.38878, , 
9.76,0.386587, , 
9.79,0.38438, , 
9.82,0.382122, , 
9.85,0.380087, , 
9.87,0.377723, , 
9.9,0.375295, , 
9.93,0.372763, , 
9.96,0.370176, , 
9.99,0.367531, , 
10.01,0.365169, , 
10.04,0.362429, , 
10.07,0.359658, , 
10.09,0.356794, , 
10.12,0.353876, , 
10.15,0.351273, , 
10.18,0.348243, , 
10.2,0.345151, , 
10.23,0.342089, , 
10.26,0.33895, , 
10.29,0.335767, , 
10.31,0.332961, , 
10.34,0.329699, , 
10.37,0.326362, , 
10.4,0.323034, , 
10.42,0.319685, , 
10.45,0.316704, , 
10.48,0.313334, , 
10.51,0.309932, , 
10.53,0.30647, , 
10.56,0.30302, , 
10.59,0.299982, , 
10.62,0.296477, , 
10.64,0.292961, , 
10.67,0.289478, , 
10.7,0.285941, , 
10.73,0.282452, , 
10.75,0.279419, , 
10.78,0.275978, , 
10.81,0.272517, , 
10.84,0.269131, , 
10.86,0.265759, , 
10.89,0.262785, , 
10.92,0.259387, , 
10.95,0.256054, , 
10.97,0.25271, , 
11,0.24941, , 
11.03,0.246553, , 
11.06,0.243295, , 
11.08,0.240044, , 
11.11,0.236792, , 
11.14,0.233501, , 
11.16,0.230286, , 
11.19,0.227494, , 
11.22,0.22434, , 
11.25,0.221199, , 
11.28,0.218177, , 
11.3,0.215167, , 
11.33,0.212567, , 
11.36,0.209666, , 
11.39,0.207207, , 
11.41,0.204016, , 
11.44,0.201241, , 
11.47,0.198486, , 
11.49,0.196158, , 
11.52,0.193572, , 
11.55,0.19105, , 
11.58,0.188463, , 
11.61,0.185941, , 
11.63,0.183783, , 
11.66,0.181321, , 
11.69,0.178865, , 
11.72,0.176513, , 
11.74,0.174174, , 
11.77,0.172137, , 
11.8,0.169862, , 
11.82,0.167661, , 
11.85,0.165475, , 
11.88,0.163376, , 
11.91,0.161427, , 
11.94,0.159505, , 
11.96,0.157489, , 
11.99,0.155503, , 
12.02,0.153522, , 
12.05,0.151646, , 
12.07,0.150036, , 
12.1,0.148189, , 
12.13,0.14637, , 
12.15,0.144607, , 
12.18,0.142861, , 
12.21,0.141172, , 
12.24,0.139753, , 
12.27,0.138196, , 
12.29,0.136628, , 
12.32,0.135108, , 
12.35,0.133573, , 
12.38,0.132354, , 
12.4,0.130821, , 
12.43,0.129394, , 
12.46,0.127957, , 
12.48,0.126595, , 
12.51,0.125515, , 
12.54,0.124079, , 
12.57,0.122779, , 
12.6,0.121544, , 
12.62,0.120271, , 
12.65,0.119201, , 
12.68,0.118023, , 
12.71,0.116828, , 
12.73,0.115741, , 
12.76,0.114585, , 
12.79,0.113482, , 
12.82,0.112524, , 
12.84,0.111521, , 
12.87,0.110416, , 
12.9,0.109405, , 
12.93,0.108425, , 
12.95,0.10762, , 
12.98,0.106586, , 
13.01,0.105664, , 
13.04,0.104746, , 
13.06,0.103802, , 
13.09,0.10293, , 
13.12,0.102208, , 
13.15,0.101343, , 
13.17,0.100556, , 
13.2,0.099699, , 
13.23,0.098879, , 
13.26,0.098192, , 
13.28,0.097503, , 
13.31,0.09671, , 
13.34,0.09596, , 
13.37,0.095243, , 
13.39,0.094649, , 
13.42,0.093885, , 
13.45,0.093232, , 
13.48,0.092548, , 
13.5,0.091915, , 
13.53,0.091264, , 
13.56,0.090731, , 
13.59,0.090063, , 
13.61,0.089472, , 
13.64,0.088845, , 
13.67,0.088227, , 
13.7,0.087707, , 
13.72,0.087179, , 
13.75,0.086562, , 
13.78,0.086034, , 
13.81,0.08549, , 
13.83,0.084946, , 
13.86,0.084439, , 
13.89,0.083933, , 
13.91,0.083395, , 
13.94,0.082879, , 
13.97,0.082332, , 
14,0.081869, , 
14.03,0.081336, , 
14.05,0.080859, , 
14.08,0.080334, , 
14.11,0.079832, , 
14.14,0.079432, , 
14.16,0.078984, , 
14.19,0.078456, , 
14.22,0.078359, , 
14.24,0.077628, , 
14.27,0.076972, , 
14.3,0.076574, , 
14.33,0.076141, , 
14.36,0.075678, , 
14.38,0.075235, , 
14.41,0.074783, , 
14.44,0.074344, , 
14.47,0.073865, , 
14.49,0.073455, , 
14.52,0.073012, , 
14.55,0.072611, , 
14.57,0.072219, , 
14.6,0.07182, , 
14.63,0.071366, , 
14.66,0.070959, , 
14.69,0.070556, , 
14.71,0.070131, , 
14.74,0.069993, , 
14.77,0.069451, , 
14.8,0.069023, , 
14.82,0.06868, , 
14.85,0.068316, , 
14.88,0.067963, , 
14.9,0.067608, , 
14.93,0.067298, , 
14.96,0.066921, , 
14.99,0.066832, , 
15.02,0.066378, , 
15.04,0.065926, , 
15.07,0.065597, , 
15.1,0.065312, , 
15.13,0.064995, , 
15.15,0.064704, , 
15.18,0.064465, , 
15.21,0.064156, , 
15.23,0.063858, , 
15.26,0.063641, , 
15.29,0.063318, , 
15.32,0.063078, , 
15.35,0.062824, , 
15.37,0.06258, , 
15.4,0.062312, , 
15.43,0.062085, , 
15.46,0.061867, , 
15.48,0.061656, , 
15.51,0.061453, , 
15.54,0.06123, , 
15.57,0.060994, , 
15.59,0.060797, , 
15.62,0.060657, , 
15.65,0.060444, , 
15.68,0.060256, , 
15.7,0.060106, , 
15.73,0.059897, , 
15.76,0.059685, , 
15.79,0.059564, , 
15.81,0.059393, , 
15.84,0.059193, , 
15.87,0.059016, , 
15.9,0.058853, , 
15.92,0.058691, , 
15.95,0.058557, , 
15.98,0.058415, , 
16,0.058262, , 
16.03,0.058136, , 
16.06,0.05806, , 
16.09,0.057932, , 
16.11,0.057781, , 
16.14,0.057664, , 
16.17,0.057555, , 
16.2,0.05744, , 
16.23,0.057368, , 
16.25,0.057258, , 
16.28,0.057144, , 
16.31,0.057031, , 
16.34,0.05692, , 
16.36,0.056827, , 
16.39,0.056725, , 
16.42,0.056599, , 
16.45,0.056458, , 
16.47,0.056377, , 
16.5,0.056288, , 
16.53,0.056149, , 
16.56,0.056048, , 
16.58,0.055943, , 
16.61,0.055795, , 
16.64,0.055658, , 
16.66,0.055582, , 
16.69,0.055461, , 
16.72,0.055362, , 
16.75,0.055248, , 
16.77,0.055115, , 
16.8,0.055007, , 
16.83,0.054932, , 
16.86,0.054798, , 
16.89,0.054641, , 
16.91,0.054511, , 
16.94,0.054413, , 
16.97,0.054307, , 
17,0.054198, , 
17.02,0.05408, , 
17.05,0.053945, , 
17.08,0.053819, , 
17.11,0.053728, , 
17.13,0.053596, , 
17.16,0.053473, , 
17.19,0.053329, , 
17.22,0.053175, , 
17.25,0.053029, , 
17.27,0.052957, , 
17.3,0.052845, , 
17.32,0.052719, , 
17.35,0.05262, , 
17.38,0.052464, , 
17.41,0.052344, , 
17.43,0.052211, , 
17.46,0.052103, , 
17.49,0.051977, , 
17.52,0.051862, , 
17.55,0.051759, , 
17.57,0.051615, , 
17.6,0.051519, , 
17.63,0.051432, , 
17.66,0.051337, , 
17.69,0.051231, , 
17.71,0.051161, , 
17.74,0.051044, , 
17.77,0.050936, , 
17.79,0.050856, , 
17.82,0.050775, , 
17.85,0.050701, , 
17.88,0.05065, , 
17.9,0.050567, , 
17.93,0.050492, , 
17.96,0.05045, , 
17.99,0.050386, , 
18.01,0.050321, , 
18.04,0.050273, , 
18.07,0.050234, , 
18.09,0.050182, , 
18.12,0.050195, , 
18.15,0.050196, , 
18.18,0.050176, , 
18.2,0.050177, , 
18.23,0.050167, , 
18.26,0.050152, , 
18.29,0.050156, , 
18.32,0.050186, , 
18.34,0.050185, , 
18.37,0.050221, , 
18.4,0.050269, , 
18.43,0.050288, , 
18.45,0.0503, , 
18.48,0.050375, , 
18.51,0.050437, , 
18.54,0.050479, , 
18.56,0.05058, , 
18.59,0.050649, , 
18.62,0.050716, , 
18.65,0.05082, , 
18.67,0.050929, , 
18.7,0.051028, , 
18.73,0.051137, , 
18.75,0.051243, , 
18.78,0.051332, , 
18.81,0.051455, , 
18.84,0.051618, , 
18.86,0.051725, , 
18.89,0.051852, , 
18.92,0.052016, , 
18.95,0.052168, , 
18.98,0.052323, , 
19,0.052533, , 
19.03,0.05268, , 
19.06,0.052819, , 
19.09,0.053003, , 
19.11,0.053188, , 
19.14,0.053353, , 
19.17,0.053568, , 
19.2,0.053749, , 
19.22,0.053957, , 
19.25,0.054165, , 
19.28,0.054424, , 
19.31,0.054643, , 
19.33,0.05483, , 
19.36,0.05511, , 
19.39,0.05536, , 
19.41,0.055625, , 
19.44,0.055957, , 
19.47,0.056198, , 
19.5,0.056481, , 
19.52,0.056789, , 
19.55,0.057105, , 
19.58,0.057392, , 
19.61,0.057776, , 
19.64,0.058116, , 
19.66,0.058468, , 
19.69,0.058847, , 
19.72,0.059301, , 
19.75,0.059722, , 
19.77,0.060113, , 
19.8,0.060548, , 
19.83,0.060994, , 
19.86,0.061471, , 
19.88,0.06198, , 
19.91,0.062453, , 
19.94,0.06296, , 
19.97,0.063557, , 
19.99,0.064129, , 
20.02,0.064659, , 
20.05,0.065304, , 
20.07,0.065822, , 
20.1,0.066431, , 
20.13,0.067048, , 
20.16,0.067719, , 
20.18,0.068351, , 
20.21,0.068943, , 
20.24,0.069596, , 
20.27,0.070269, , 
20.3,0.070951, , 
20.32,0.071659, , 
20.35,0.072279, , 
20.38,0.072896, , 
20.41,0.073579, , 
20.43,0.074242, , 
20.46,0.074865, , 
20.49,0.075568, , 
20.52,0.076123, , 
20.54,0.076721, , 
20.57,0.077309, , 
20.6,0.077941, , 
20.63,0.078517, , 
20.66,0.079104, , 
20.68,0.079548, , 
20.71,0.080081, , 
20.73,0.080596, , 
20.76,0.081067, , 
20.79,0.081494, , 
20.82,0.081858, , 
20.84,0.082293, , 
20.87,0.082615, , 
20.9,0.08293, , 
20.93,0.083246, , 
20.95,0.083487, , 
20.98,0.083769, , 
21.01,0.084041, , 
21.04,0.084237, , 
21.07,0.08438, , 
21.1,0.084557, , 
21.12,0.084667, , 
21.15,0.084719, , 
21.18,0.084766, , 
21.2,0.084794, , 
21.23,0.084775, , 
21.26,0.084765, , 
21.29,0.08476, , 
21.31,0.08467, , 
21.34,0.084558, , 
21.37,0.084458, , 
21.4,0.084344, , 
21.42,0.084164, , 
21.45,0.083995, , 
21.48,0.08378, , 
21.5,0.083514, , 
21.53,0.083265, , 
21.56,0.083048, , 
21.59,0.082778, , 
21.61,0.082512, , 
21.64,0.082191, , 
21.67,0.081855, , 
21.7,0.081582, , 
21.73,0.081277, , 
21.75,0.080902, , 
21.78,0.080539, , 
21.81,0.080206, , 
21.84,0.079867, , 
21.86,0.079528, , 
21.89,0.079195, , 
21.92,0.078816, , 
21.95,0.078458, , 
21.97,0.078096, , 
22,0.077786, , 
22.03,0.077402, , 
22.06,0.077065, , 
22.08,0.076689, , 
22.11,0.076303, , 
22.14,0.076015, , 
22.16,0.075692, , 
22.19,0.075319, , 
22.22,0.074994, , 
22.25,0.074685, , 
22.28,0.074349, , 
22.3,0.074046, , 
22.33,0.073765, , 
22.36,0.073446, , 
22.39,0.073162, , 
22.41,0.072865, , 
22.44,0.072608, , 
22.47,0.072299, , 
22.5,0.072035, , 
22.52,0.07174, , 
22.55,0.071474, , 
22.58,0.071259, , 
22.61,0.071049, , 
22.63,0.070751, , 
22.66,0.070537, , 
22.69,0.070337, , 
22.72,0.070116, , 
22.74,0.069909, , 
22.77,0.069721, , 
22.8,0.069512, , 
22.82,0.069325, , 
22.85,0.069142, , 
22.88,0.068995, , 
22.91,0.068815, , 
22.93,0.06869, , 
22.96,0.068537, , 
22.99,0.068366, , 
23.02,0.068249, , 
23.05,0.06812, , 
23.07,0.067961, , 
23.1,0.067828, , 
23.13,0.067684, , 
23.16,0.067522, , 
23.18,0.067398, , 
23.21,0.067264, , 
23.24,0.067091, , 
23.27,0.06696, , 
23.29,0.066867, , 
23.32,0.066754, , 
23.35,0.06662, , 
23.38,0.066513, , 
23.4,0.066362, , 
23.43,0.066209, , 
23.46,0.066073, , 
23.48,0.065948, , 
23.51,0.065791, , 
23.54,0.065646, , 
23.57,0.065508, , 
23.59,0.065341, , 
23.62,0.065237, , 
23.65,0.065091, , 
23.68,0.064931, , 
23.7,0.064751, , 
23.73,0.064595, , 
23.76,0.064416, , 
23.79,0.064241, , 
23.82,0.064089, , 
23.84,0.063898, , 
23.87,0.063687, , 
23.9,0.063521, , 
23.93,0.063359, , 
23.95,0.063167, , 
23.98,0.062948, , 
24.01,0.062745, , 
24.04,0.062537, , 
24.06,0.062365, , 
24.09,0.062148, , 
24.12,0.061917, , 
24.15,0.061669, , 
24.17,0.061461, , 
24.2,0.061185, , 
24.23,0.060967, , 
24.25,0.060762, , 
24.28,0.060515, , 
24.31,0.06023, , 
24.34,0.059971, , 
24.36,0.059738, , 
24.39,0.059479, , 
24.42,0.059222, , 
24.45,0.058943, , 
24.48,0.058633, , 
24.5,0.058409, , 
24.53,0.058138, , 
24.56,0.057872, , 
24.59,0.057612, , 
24.61,0.057362, , 
24.64,0.057052, , 
24.67,0.0568, , 
24.7,0.056581, , 
24.72,0.056326, , 
24.75,0.056014, , 
24.78,0.055757, , 
24.81,0.055535, , 
24.83,0.055305, , 
24.86,0.055047, , 
24.89,0.054812, , 
24.91,0.054537, , 
24.94,0.054303, , 
24.97,0.054088, , 
25,0.053807, , 
25.02,0.053561, , 
25.05,0.053348, , 
25.08,0.053061, , 
25.11,0.052841, , 
25.14,0.052634, , 
25.16,0.052398, , 
25.19,0.052117, , 
25.22,0.051915, , 
25.25,0.051705, , 
25.27,0.051474, , 
25.3,0.051278, , 
25.33,0.051069, , 
25.36,0.050848, , 
25.38,0.050691, , 
25.41,0.050527, , 
25.44,0.050311, , 
25.47,0.050143, , 
25.49,0.049996, , 
25.52,0.049778, , 
25.55,0.04962, , 
25.57,0.049479, , 
25.6,0.04933, , 
25.63,0.049146, , 
25.66,0.049017, , 
25.68,0.048864, , 
25.71,0.048733, , 
25.74,0.048597, , 
25.77,0.048456, , 
25.8,0.048284, , 
25.82,0.048159, , 
25.85,0.048039, , 
25.88,0.047851, , 
25.91,0.047711, , 
25.93,0.047596, , 
25.96,0.047469, , 
25.99,0.047367, , 
26.02,0.047278, , 
26.04,0.047137, , 
26.07,0.047036, , 
26.1,0.046974, , 
26.13,0.046872, , 
26.15,0.046778, , 
26.18,0.046702, , 
26.21,0.046598, , 
26.23,0.046489, , 
26.26,0.046433, , 
26.29,0.046372, , 
26.32,0.046263, , 
26.34,0.046187, , 
26.37,0.046122, , 
26.4,0.046043, , 
26.43,0.045967, , 
26.45,0.045914, , 
26.48,0.045836, , 
26.51,0.045761, , 
26.54,0.045714, , 
26.57,0.045624, , 
26.59,0.04554, , 
26.62,0.045499, , 
26.65,0.045437, , 
26.68,0.04536, , 
26.7,0.045314, , 
26.73,0.045264, , 
26.76,0.045178, , 
26.79,0.045136, , 
26.81,0.045098, , 
26.84,0.045051, , 
26.87,0.045023, , 
26.9,0.045002, , 
26.92,0.04495, , 
26.95,0.044896, , 
26.98,0.044849, , 
27,0.044804, , 
27.03,0.044765, , 
27.06,0.044755, , 
27.09,0.044715, , 
27.11,0.044655, , 
27.14,0.04461, , 
27.17,0.044585, , 
27.2,0.044533, , 
27.23,0.044477, , 
27.25,0.044444, , 
27.28,0.044414, , 
27.31,0.044395, , 
27.34,0.044374, , 
27.36,0.044317, , 
27.39,0.044284, , 
27.42,0.044281, , 
27.45,0.044232, , 
27.47,0.044195, , 
27.5,0.044194, , 
27.53,0.044165, , 
27.56,0.044117, , 
27.58,0.044087, , 
27.61,0.044061, , 
27.64,0.044028, , 
27.66,0.043993, , 
27.69,0.043952, , 
27.72,0.043909, , 
27.75,0.04386, , 
27.77,0.04384, , 
27.8,0.043787, , 
27.83,0.043764, , 
27.86,0.043781, , 
27.89,0.043751, , 
27.91,0.043705, , 
27.94,0.043689, , 
27.97,0.043663, , 
28,0.043643, , 
28.02,0.043658, , 
28.05,0.043658, , 
28.08,0.043635, , 
28.11,0.043633, , 
28.13,0.043652, , 
28.16,0.043637, , 
28.19,0.043631, , 
28.22,0.043652, , 
28.24,0.043635, , 
28.27,0.043623, , 
28.3,0.043646, , 
28.32,0.043638, , 
28.35,0.04366, , 
28.38,0.043722, , 
28.41,0.043756, , 
28.43,0.043785, , 
28.46,0.043872, , 
28.49,0.043962, , 
28.52,0.044018, , 
28.55,0.04412, , 
28.57,0.044244, , 
28.6,0.044358, , 
28.63,0.044506, , 
28.66,0.04465, , 
28.68,0.044839, , 
28.71,0.04502, , 
28.74,0.045245, , 
28.77,0.045435, , 
28.79,0.04571, , 
28.82,0.045977, , 
28.85,0.046186, , 
28.88,0.046518, , 
28.9,0.046872, , 
28.93,0.047241, , 
28.96,0.047581, , 
28.98,0.047975, , 
29.01,0.048427, , 
29.04,0.048866, , 
29.07,0.04936, , 
29.09,0.049463, , 
29.12,0.050145, , 
29.15,0.050826, , 
29.18,0.051397, , 
29.2,0.051978, , 
29.23,0.052609, , 
29.26,0.053181, , 
29.29,0.05382, , 
29.32,0.054466, , 
29.34,0.054613, , 
29.37,0.055571, , 
29.4,0.056588, , 
29.43,0.057314, , 
29.45,0.058155, , 
29.48,0.058892, , 
29.51,0.05978, , 
29.54,0.060648, , 
29.56,0.061378, , 
29.59,0.062214, , 
29.62,0.06284, , 
29.65,0.064033, , 
29.67,0.064962, , 
29.7,0.065733, , 
29.73,0.066727, , 
29.75,0.067693, , 
29.78,0.068677, , 
29.81,0.069576, , 
29.84,0.070476, , 
29.87,0.070681, , 
29.89,0.07216, , 
29.92,0.073418, , 
29.95,0.074459, , 
29.98,0.075471, , 
30,0.076319, , 
30.03,0.07725, , 
30.06,0.078285, , 
30.09,0.07925, , 
30.11,0.080225, , 
30.14,0.081021, , 
30.17,0.082028, , 
30.2,0.082951, , 
30.22,0.083895, , 
30.25,0.084774, , 
30.28,0.085726, , 
30.31,0.08653, , 
30.33,0.0874, , 
30.36,0.08819, , 
30.39,0.089065, , 
30.41,0.089872, , 
30.44,0.090553, , 
30.47,0.091301, , 
30.5,0.092105, , 
30.52,0.092819, , 
30.55,0.093532, , 
30.58,0.094095, , 
30.61,0.094757, , 
30.64,0.095368, , 
30.66,0.095995, , 
30.69,0.096544, , 
30.72,0.097133, , 
30.75,0.09762, , 
30.77,0.098063, , 
30.8,0.098524, , 
30.83,0.098987, , 
30.86,0.099383, , 
30.88,0.099685, , 
30.91,0.100022, , 
30.94,0.100349, , 
30.97,0.100608, , 
30.99,0.100875, , 
31.02,0.101092, , 
31.05,0.101247, , 
31.07,0.101399, , 
31.1,0.101526, , 
31.13,0.101576, , 
31.16,0.10161, , 
31.18,0.101642, , 
31.21,0.101648, , 
31.24,0.101628, , 
31.27,0.101595, , 
31.3,0.101495, , 
31.32,0.101374, , 
31.35,0.101261, , 
31.38,0.101072, , 
31.41,0.100837, , 
31.43,0.10064, , 
31.46,0.100431, , 
31.49,0.100183, , 
31.52,0.099905, , 
31.54,0.099615, , 
31.57,0.099279, , 
31.6,0.098896, , 
31.63,0.098607, , 
31.65,0.098226, , 
31.68,0.097857, , 
31.71,0.097474, , 
31.73,0.097066, , 
31.76,0.096638, , 
31.79,0.096292, , 
31.82,0.095794, , 
31.84,0.095301, , 
31.87,0.094859, , 
31.9,0.09439, , 
31.93,0.093982, , 
31.95,0.09348, , 
31.98,0.093013, , 
32.01,0.092482, , 
32.04,0.091982, , 
32.06,0.09158, , 
32.09,0.091023, , 
32.12,0.090517, , 
32.15,0.090025, , 
32.17,0.089521, , 
32.2,0.088951, , 
32.23,0.0885, , 
32.26,0.087978, , 
32.28,0.087477, , 
32.31,0.086944, , 
32.34,0.086428, , 
32.37,0.085956, , 
32.4,0.085481, , 
32.42,0.08497, , 
32.45,0.084467, , 
32.48,0.083981, , 
32.51,0.083639, , 
32.53,0.083087, , 
32.56,0.082601, , 
32.59,0.082137, , 
32.62,0.081718, , 
32.64,0.081198, , 
32.67,0.080835, , 
32.7,0.08037, , 
32.73,0.079945, , 
32.75,0.079486, , 
32.78,0.079044, , 
32.81,0.078667, , 
32.84,0.078308, , 
32.86,0.077884, , 
32.89,0.077441, , 
32.92,0.07705, , 
32.95,0.076715, , 
32.97,0.076325, , 
33,0.075967, , 
33.03,0.075627, , 
33.06,0.07529, , 
33.08,0.074929, , 
33.11,0.074653, , 
33.14,0.074322, , 
33.16,0.07402, , 
33.19,0.073671, , 
33.22,0.073326, , 
33.25,0.073066, , 
33.27,0.072849, , 
33.3,0.072568, , 
33.33,0.072249, , 
33.36,0.072016, , 
33.38,0.071789, , 
33.41,0.071513, , 
33.44,0.07127, , 
33.47,0.071044, , 
33.49,0.070817, , 
33.52,0.070597, , 
33.55,0.070419, , 
33.58,0.070225, , 
33.6,0.070079, , 
33.63,0.069921, , 
33.66,0.069753, , 
33.69,0.069601, , 
33.72,0.06949, , 
33.74,0.069325, , 
33.77,0.069175, , 
33.8,0.069063, , 
33.83,0.068943, , 
33.85,0.068866, , 
33.88,0.068779, , 
33.91,0.068682, , 
33.94,0.068579, , 
33.96,0.068525, , 
33.99,0.068483, , 
34.02,0.068397, , 
34.05,0.068345, , 
34.07,0.068321, , 
34.1,0.068298, , 
34.13,0.068295, , 
34.16,0.068312, , 
34.18,0.068296, , 
34.21,0.06831, , 
34.24,0.068374, , 
34.27,0.068405, , 
34.29,0.068421, , 
34.32,0.068473, , 
34.35,0.068538, , 
34.38,0.068564, , 
34.4,0.068661, , 
34.43,0.068738, , 
34.46,0.06882, , 
34.48,0.068933, , 
34.51,0.069046, , 
34.54,0.069155, , 
34.57,0.069267, , 
34.59,0.069356, , 
34.62,0.06947, , 
34.65,0.069623, , 
34.68,0.069812, , 
34.7,0.069981, , 
34.73,0.07013, , 
34.76,0.070315, , 
34.79,0.070534, , 
34.81,0.070745, , 
34.84,0.070983, , 
34.87,0.071182, , 
34.9,0.0714, , 
34.92,0.07168, , 
34.95,0.071949, , 
34.98,0.072176, , 
35.01,0.072506, , 
35.03,0.072803, , 
35.06,0.073106, , 
35.09,0.073436, , 
35.12,0.073831, , 
35.15,0.07418, , 
35.17,0.074564, , 
35.2,0.074898, , 
35.23,0.075328, , 
35.26,0.075807, , 
35.28,0.076317, , 
35.31,0.076786, , 
35.34,0.077153, , 
35.37,0.077786, , 
35.39,0.078357, , 
35.42,0.078962, , 
35.45,0.079649, , 
35.48,0.080149, , 
35.5,0.080957, , 
35.53,0.081746, , 
35.56,0.082606, , 
35.59,0.083371, , 
35.61,0.084454, , 
35.64,0.085365, , 
35.67,0.086452, , 
35.7,0.087574, , 
35.72,0.088921, , 
35.75,0.090275, , 
35.78,0.091557, , 
35.81,0.092942, , 
35.83,0.094822, , 
35.86,0.096633, , 
35.89,0.098594, , 
35.91,0.100099, , 
35.94,0.102646, , 
35.97,0.105078, , 
36,0.107637, , 
36.02,0.110307, , 
36.05,0.112822, , 
36.08,0.115858, , 
36.11,0.119006, , 
36.13,0.122326, , 
36.16,0.125373, , 
36.19,0.129427, , 
36.22,0.132714, , 
36.24,0.136616, , 
36.27,0.140387, , 
36.3,0.144646, , 
36.33,0.148828, , 
36.36,0.152988, , 
36.38,0.156037, , 
36.41,0.160902, , 
36.44,0.165135, , 
36.47,0.169352, , 
36.49,0.173583, , 
36.52,0.176585, , 
36.55,0.18125, , 
36.58,0.185223, , 
36.6,0.189059, , 
36.63,0.192708, , 
36.66,0.195283, , 
36.69,0.199204, , 
36.71,0.202389, , 
36.74,0.20542, , 
36.77,0.207901, , 
36.8,0.210863, , 
36.82,0.212988, , 
36.85,0.215251, , 
36.88,0.217179, , 
36.91,0.21911, , 
36.93,0.220723, , 
36.96,0.221927, , 
36.99,0.222985, , 
37.02,0.224165, , 
37.04,0.224988, , 
37.07,0.225614, , 
37.1,0.225991, , 
37.13,0.226246, , 
37.15,0.226279, , 
37.18,0.226189, , 
37.21,0.225936, , 
37.23,0.225408, , 
37.26,0.22486, , 
37.29,0.224058, , 
37.32,0.223145, , 
37.34,0.222077, , 
37.37,0.220977, , 
37.4,0.219838, , 
37.43,0.218561, , 
37.45,0.216787, , 
37.48,0.215104, , 
37.51,0.213297, , 
37.54,0.211684, , 
37.56,0.209734, , 
37.59,0.207707, , 
37.62,0.205681, , 
37.65,0.203871, , 
37.67,0.201526, , 
37.7,0.199719, , 
37.73,0.197596, , 
37.76,0.195524, , 
37.78,0.193268, , 
37.81,0.191153, , 
37.84,0.189055, , 
37.87,0.187559, , 
37.9,0.185209, , 
37.92,0.18315, , 
37.95,0.181136, , 
37.98,0.17915, , 
38.01,0.177657, , 
38.03,0.175308, , 
38.06,0.173285, , 
38.09,0.171201, , 
38.12,0.169133, , 
38.14,0.167659, , 
38.17,0.165336, , 
38.2,0.163336, , 
38.23,0.161391, , 
38.25,0.159696, , 
38.28,0.157539, , 
38.31,0.1559, , 
38.34,0.154071, , 
38.36,0.152477, , 
38.39,0.15049, , 
38.42,0.148774, , 
38.45,0.147274, , 
38.47,0.145816, , 
38.5,0.143981, , 
38.53,0.14236, , 
38.56,0.140793, , 
38.59,0.139492, , 
38.61,0.138, , 
38.64,0.136527, , 
38.66,0.135128, , 
38.69,0.1339, , 
38.72,0.132347, , 
38.75,0.131209, , 
38.77,0.129931, , 
38.8,0.128822, , 
38.83,0.127442, , 
38.86,0.126252, , 
38.88,0.1252, , 
38.91,0.12423, , 
38.94,0.123003, , 
38.97,0.121888, , 
38.99,0.120828, , 
39.03,0.119934, , 
39.05,0.118899, , 
39.08,0.117907, , 
39.1,0.116955, , 
39.13,0.116115, , 
39.16,0.115061, , 
39.19,0.114282, , 
39.22,0.113382, , 
39.24,0.112611, , 
39.27,0.111695, , 
39.3,0.110874, , 
39.33,0.110143, , 
39.35,0.109475, , 
39.38,0.108633, , 
39.41,0.107852, , 
39.44,0.107135, , 
39.46,0.106498, , 
39.49,0.105747, , 
39.52,0.105051, , 
39.55,0.104363, , 
39.57,0.103753, , 
39.6,0.103022, , 
39.63,0.102482, , 
39.66,0.101832, , 
39.68,0.101294, , 
39.71,0.100637, , 
39.74,0.100046, , 
39.77,0.099483, , 
39.79,0.099096, , 
39.82,0.098453, , 
39.85,0.097895, , 
39.88,0.097388, , 
39.9,0.096861, , 
39.93,0.096477, , 
39.96,0.095905, , 
39.98,0.095421, , 
40.01,0.09491, , 
40.04,0.09444, , 
40.07,0.094123, , 
40.09,0.093592, , 
40.12,0.093147, , 
40.15,0.092737, , 
40.18,0.092335, , 
40.21,0.091833, , 
40.23,0.091489, , 
40.26,0.091075, , 
40.29,0.090709, , 
40.31,0.090267, , 
40.34,0.089873, , 
40.37,0.089525, , 
40.4,0.089202, , 
40.42,0.088759, , 
40.45,0.088352, , 
40.48,0.087987, , 
40.51,0.087668, , 
40.53,0.087278, , 
40.56,0.086916, , 
40.59,0.086544, , 
40.62,0.086189, , 
40.65,0.085766, , 
40.67,0.085447, , 
40.7,0.085069, , 
40.73,0.084751, , 
40.76,0.08436, , 
40.78,0.084007, , 
40.81,0.083683, , 
40.84,0.083386, , 
40.87,0.082978, , 
40.89,0.082593, , 
40.92,0.08225, , 
40.95,0.081935, , 
40.98,0.081564, , 
41,0.081243, , 
41.03,0.080874, , 
41.06,0.08054, , 
41.09,0.080152, , 
41.11,0.079869, , 
41.14,0.079497, , 
41.17,0.079189, , 
41.2,0.078795, , 
41.22,0.078434, , 
41.25,0.078088, , 
41.28,0.077868, , 
41.31,0.077453, , 
41.33,0.077104, , 
41.36,0.076793, , 
41.39,0.076433, , 
41.41,0.076181, , 
41.44,0.07581, , 
41.47,0.075454, , 
41.5,0.075103, , 
41.52,0.074805, , 
41.55,0.074553, , 
41.58,0.074146, , 
41.61,0.073831, , 
41.63,0.073489, , 
41.66,0.073167, , 
41.69,0.072841, , 
41.72,0.072586, , 
41.74,0.072241, , 
41.77,0.071957, , 
41.8,0.071594, , 
41.83,0.071259, , 
41.85,0.070985, , 
41.88,0.070729, , 
41.91,0.070344, , 
41.94,0.070022, , 
41.97,0.069742, , 
42,0.069462, , 
42.02,0.069149, , 
42.05,0.068877, , 
42.08,0.068571, , 
42.1,0.068257, , 
42.13,0.067982, , 
42.16,0.067659, , 
42.19,0.067313, , 
42.21,0.067039, , 
42.24,0.066788, , 
42.27,0.066455, , 
42.3,0.066243, , 
42.32,0.065983, , 
42.35,0.065728, , 
42.38,0.065417, , 
42.41,0.065146, , 
42.44,0.064858, , 
42.46,0.064674, , 
42.49,0.064388, , 
42.52,0.064113, , 
42.54,0.06385, , 
42.57,0.063619, , 
42.6,0.063437, , 
42.63,0.063147, , 
42.65,0.062947, , 
42.68,0.062722, , 
42.71,0.062457, , 
42.73,0.06229, , 
42.76,0.06204, , 
42.79,0.061797, , 
42.82,0.061579, , 
42.84,0.061399, , 
42.87,0.061134, , 
42.9,0.060941, , 
42.93,0.060737, , 
42.95,0.06054, , 
42.98,0.060293, , 
43.01,0.060123, , 
43.04,0.059931, , 
43.06,0.059742, , 
43.09,0.059524, , 
43.12,0.05933, , 
43.15,0.059147, , 
43.17,0.059007, , 
43.2,0.05878, , 
43.23,0.058572, , 
43.26,0.0584, , 
43.28,0.058243, , 
43.31,0.058039, , 
43.34,0.057917, , 
43.37,0.057772, , 
43.4,0.057571, , 
43.42,0.057372, , 
43.45,0.057308, , 
43.48,0.057094, , 
43.51,0.056932, , 
43.53,0.056802, , 
43.56,0.05664, , 
43.59,0.056499, , 
43.62,0.056377, , 
43.64,0.056222, , 
43.67,0.05608, , 
43.71,0.056039, , 
43.73,0.05589, , 
43.75,0.055617, , 
43.78,0.055513, , 
43.81,0.055365, , 
43.84,0.05521, , 
43.86,0.055082, , 
43.89,0.054927, , 
43.92,0.054799, , 
43.95,0.054705, , 
43.97,0.054666, , 
44,0.054467, , 
44.03,0.054309, , 
44.06,0.054183, , 
44.08,0.054048, , 
44.11,0.053928, , 
44.14,0.053846, , 
44.16,0.053714, , 
44.19,0.053568, , 
44.23,0.053542, , 
44.25,0.053366, , 
44.28,0.053165, , 
44.3,0.053094, , 
44.33,0.05298, , 
44.36,0.05285, , 
44.38,0.052739, , 
44.41,0.052636, , 
44.44,0.052493, , 
44.47,0.052394, , 
44.49,0.052275, , 
44.52,0.052122, , 
44.55,0.051993, , 
44.58,0.051903, , 
44.6,0.05176, , 
44.63,0.051652, , 
44.66,0.051572, , 
44.69,0.051461, , 
44.72,0.051362, , 
44.74,0.051239, , 
44.77,0.051105, , 
44.8,0.051016, , 
44.83,0.050924, , 
44.85,0.05081, , 
44.88,0.050686, , 
44.91,0.050614, , 
44.94,0.050497, , 
44.96,0.050399, , 
44.99,0.050298, , 
45.02,0.050184, , 
45.05,0.050014, , 
45.07,0.049891, , 
45.1,0.049793, , 
45.13,0.049686, , 
45.16,0.049564, , 
45.18,0.049442, , 
45.21,0.049285, , 
45.24,0.049156, , 
45.27,0.049033, , 
45.29,0.048891, , 
45.32,0.048791, , 
45.35,0.048712, , 
45.38,0.048572, , 
45.4,0.048471, , 
45.43,0.048409, , 
45.46,0.048328, , 
45.48,0.048193, , 
45.51,0.048118, , 
45.54,0.048017, , 
45.57,0.047951, , 
45.59,0.047878, , 
45.62,0.04777, , 
45.65,0.047666, , 
45.68,0.047607, , 
45.7,0.047545, , 
45.73,0.047432, , 
45.76,0.047378, , 
45.79,0.047312, , 
45.81,0.047214, , 
45.84,0.047177, , 
45.87,0.047118, , 
45.9,0.046999, , 
45.92,0.046929, , 
45.95,0.046883, , 
45.98,0.046793, , 
46.01,0.04673, , 
46.03,0.046705, , 
46.06,0.046645, , 
46.09,0.046567, , 
46.12,0.046516, , 
46.15,0.046443, , 
46.17,0.04637, , 
46.2,0.046326, , 
46.23,0.046267, , 
46.26,0.046198, , 
46.28,0.046154, , 
46.31,0.046077, , 
46.34,0.046006, , 
46.37,0.045952, , 
46.39,0.045914, , 
46.42,0.045824, , 
46.45,0.04577, , 
46.48,0.045736, , 
46.5,0.045665, , 
46.53,0.045604, , 
46.56,0.045581, , 
46.59,0.045522, , 
46.61,0.045472, , 
46.64,0.045441, , 
46.67,0.045363, , 
46.7,0.04532, , 
46.72,0.045299, , 
46.75,0.045231, , 
46.78,0.045174, , 
46.81,0.045145, , 
46.83,0.045094, , 
46.86,0.045027, , 
46.89,0.045007, , 
46.91,0.04496, , 
46.94,0.044913, , 
46.97,0.044905, , 
47,0.044877, , 
47.02,0.044815, , 
47.05,0.044789, , 
47.08,0.0448, , 
47.11,0.044753, , 
47.13,0.044718, , 
47.16,0.044701, , 
47.19,0.044666, , 
47.22,0.044616, , 
47.24,0.044592, , 
47.27,0.044557, , 
47.3,0.044498, , 
47.33,0.044476, , 
47.35,0.044431, , 
47.38,0.0444, , 
47.41,0.044406, , 
47.44,0.044365, , 
47.47,0.044314, , 
47.49,0.044302, , 
47.52,0.044288, , 
47.55,0.044264, , 
47.58,0.044282, , 
47.6,0.044291, , 
47.63,0.044272, , 
47.66,0.044266, , 
47.69,0.044295, , 
47.71,0.044266, , 
47.74,0.044276, , 
47.77,0.044287, , 
47.8,0.04426, , 
47.82,0.044254, , 
47.85,0.044284, , 
47.88,0.044291, , 
47.91,0.044324, , 
47.93,0.044357, , 
47.96,0.044388, , 
47.99,0.044419, , 
48.02,0.044478, , 
48.04,0.044512, , 
48.07,0.044538, , 
48.1,0.04461, , 
48.13,0.044706, , 
48.15,0.044766, , 
48.18,0.044865, , 
48.21,0.044954, , 
48.23,0.045037, , 
48.26,0.045128, , 
48.29,0.045248, , 
48.32,0.045327, , 
48.34,0.045449, , 
48.37,0.045587, , 
48.4,0.045677, , 
48.43,0.045756, , 
48.45,0.045912, , 
48.48,0.046039, , 
48.51,0.046153, , 
48.54,0.046294, , 
48.56,0.046464, , 
48.59,0.046586, , 
48.62,0.046703, , 
48.65,0.046796, , 
48.67,0.04691, , 
48.7,0.047058, , 
48.73,0.0472, , 
48.76,0.047299, , 
48.78,0.047437, , 
48.81,0.047544, , 
48.84,0.047644, , 
48.87,0.047736, , 
48.9,0.047874, , 
48.92,0.047974, , 
48.95,0.048075, , 
48.98,0.048186, , 
49.01,0.048273, , 
49.03,0.048334, , 
49.06,0.048437, , 
49.09,0.048476, , 
49.12,0.04851, , 
49.14,0.048581, , 
49.17,0.048624, , 
49.2,0.048663, , 
49.23,0.048734, , 
49.25,0.048759, , 
49.28,0.048755, , 
49.31,0.048767, , 
49.34,0.048786, , 
49.36,0.04877, , 
49.39,0.048776, , 
49.42,0.048792, , 
49.45,0.048779, , 
49.47,0.048756, , 
49.5,0.04877, , 
49.53,0.048711, , 
49.56,0.048674, , 
49.58,0.048671, , 
49.61,0.048638, , 
49.64,0.04857, , 
49.66,0.048521, , 
49.69,0.04849, , 
49.72,0.048414, , 
49.75,0.048363, , 
49.77,0.048309, , 
49.8,0.048233, , 
49.83,0.048143, , 
49.86,0.048076, , 
49.88,0.047963, , 
49.91,0.047898, , 
49.94,0.047831, , 
49.97,0.047732, , 
49.99,0.047669, , 
50.02,0.047601, , 
50.05,0.047478, , 
50.08,0.047368, , 
50.1,0.047297, , 
50.13,0.04721, , 
50.16,0.047084, , 
50.19,0.047015, , 
50.22,0.046918, , 
50.24,0.046821, , 
50.27,0.046723, , 
50.3,0.046645, , 
50.33,0.04652, , 
50.35,0.046446, , 
50.38,0.046352, , 
50.41,0.046234, , 
50.44,0.046153, , 
50.46,0.046093, , 
50.49,0.045969, , 
50.52,0.045875, , 
50.55,0.045813, , 
50.57,0.045729, , 
50.6,0.045614, , 
50.63,0.045544, , 
50.66,0.04546, , 
50.68,0.045379, , 
50.71,0.04531, , 
50.74,0.045254, , 
50.77,0.045149, , 
50.79,0.045108, , 
50.82,0.045048, , 
50.85,0.044961, , 
50.88,0.044925, , 
50.9,0.044887, , 
50.93,0.04479, , 
50.96,0.044726, , 
50.98,0.044693, , 
51.01,0.044633, , 
51.04,0.044587, , 
51.07,0.04455, , 
51.09,0.044494, , 
51.12,0.044432, , 
51.15,0.044396, , 
51.18,0.044363, , 
51.2,0.044324, , 
51.23,0.044293, , 
51.26,0.044241, , 
51.29,0.044199, , 
51.31,0.044172, , 
51.34,0.044141, , 
51.37,0.044079, , 
51.4,0.044044, , 
51.42,0.044039, , 
51.45,0.043991, , 
51.48,0.043952, , 
51.51,0.043942, , 
51.53,0.043906, , 
51.56,0.04386, , 
51.59,0.043835, , 
51.62,0.043812, , 
51.65,0.043765, , 
51.67,0.043771, , 
51.7,0.043757, , 
51.73,0.0437, , 
51.76,0.043683, , 
51.78,0.043669, , 
51.81,0.043635, , 
51.84,0.043639, , 
51.87,0.043609, , 
51.89,0.043549, , 
51.92,0.043539, , 
51.95,0.043536, , 
51.98,0.043511, , 
52,0.04347, , 
52.03,0.043446, , 
52.06,0.043405, , 
52.09,0.043347, , 
52.11,0.043345, , 
52.14,0.043307, , 
52.17,0.043263, , 
52.2,0.043231, , 
52.22,0.0432, , 
52.25,0.043148, , 
52.28,0.04313, , 
52.31,0.043094, , 
52.33,0.043044, , 
52.36,0.043023, , 
52.39,0.042999, , 
52.41,0.042934, , 
52.44,0.042889, , 
52.47,0.042857, , 
52.5,0.042813, , 
52.52,0.042774, , 
52.55,0.04275, , 
52.58,0.042692, , 
52.61,0.042643, , 
52.63,0.042612, , 
52.66,0.042553, , 
52.69,0.042511, , 
52.72,0.042499, , 
52.74,0.042455, , 
52.77,0.0424, , 
52.8,0.042355, , 
52.83,0.042327, , 
52.85,0.042253, , 
52.88,0.042204, , 
52.91,0.042194, , 
52.94,0.04214, , 
52.97,0.042101, , 
52.99,0.042072, , 
53.02,0.042008, , 
53.05,0.041943, , 
53.08,0.041926, , 
53.1,0.041875, , 
53.13,0.041805, , 
53.16,0.041802, , 
53.19,0.041768, , 
53.21,0.041722, , 
53.24,0.04168, , 
53.27,0.041664, , 
53.3,0.04161, , 
53.32,0.041576, , 
53.35,0.041545, , 
53.38,0.041501, , 
53.41,0.04146, , 
53.43,0.041448, , 
53.46,0.041401, , 
53.49,0.041357, , 
53.52,0.041332, , 
53.54,0.041297, , 
53.57,0.041258, , 
53.6,0.041256, , 
53.63,0.041218, , 
53.65,0.041181, , 
53.68,0.041148, , 
53.71,0.04111, , 
53.73,0.041049, , 
53.76,0.041035, , 
53.79,0.041025, , 
53.82,0.040971, , 
53.84,0.040934, , 
53.87,0.040929, , 
53.9,0.040908, , 
53.93,0.040868, , 
53.95,0.040849, , 
53.98,0.040819, , 
54.01,0.040786, , 
54.04,0.040788, , 
54.06,0.040743, , 
54.09,0.040687, , 
54.12,0.040669, , 
54.15,0.040661, , 
54.17,0.040625, , 
54.2,0.04061, , 
54.23,0.040594, , 
54.26,0.040533, , 
54.28,0.040534, , 
54.31,0.04054, , 
54.34,0.040494, , 
54.37,0.040458, , 
54.4,0.04044, , 
54.42,0.040404, , 
54.45,0.040393, , 
54.48,0.040404, , 
54.51,0.040386, , 
54.53,0.040334, , 
54.56,0.040325, , 
54.59,0.040312, , 
54.62,0.040258, , 
54.64,0.040273, , 
54.67,0.040286, , 
54.7,0.040272, , 
54.73,0.040262, , 
54.75,0.04028, , 
54.78,0.040263, , 
54.81,0.040265, , 
54.84,0.04029, , 
54.86,0.040261, , 
54.89,0.04027, , 
54.92,0.040273, , 
54.95,0.040263, , 
54.97,0.040256, , 
55,0.040283, , 
55.03,0.040281, , 
55.06,0.040266, , 
55.08,0.040278, , 
55.11,0.040282, , 
55.14,0.040268, , 
55.16,0.040262, , 
55.19,0.040273, , 
55.22,0.040264, , 
55.25,0.0403, , 
55.27,0.040371, , 
55.3,0.040399, , 
55.33,0.04045, , 
55.36,0.040514, , 
55.38,0.040573, , 
55.41,0.040627, , 
55.44,0.040722, , 
55.47,0.040785, , 
55.49,0.040878, , 
55.52,0.041044, , 
55.55,0.041184, , 
55.58,0.041286, , 
55.6,0.041495, , 
55.63,0.041675, , 
55.66,0.041849, , 
55.69,0.042019, , 
55.72,0.042253, , 
55.74,0.042417, , 
55.77,0.042602, , 
55.8,0.042818, , 
55.83,0.043071, , 
55.85,0.043295, , 
55.88,0.043551, , 
55.91,0.043708, , 
55.94,0.043928, , 
55.96,0.044186, , 
55.99,0.04442, , 
56.02,0.044591, , 
56.05,0.044889, , 
56.07,0.045086, , 
56.1,0.045291, , 
56.13,0.04549, , 
56.16,0.045752, , 
56.18,0.045945, , 
56.21,0.046158, , 
56.24,0.046292, , 
56.27,0.046532, , 
56.29,0.046719, , 
56.32,0.046914, , 
56.35,0.04706, , 
56.38,0.047132, , 
56.4,0.047265, , 
56.43,0.047367, , 
56.46,0.047444, , 
56.48,0.047544, , 
56.51,0.047602, , 
56.54,0.047663, , 
56.57,0.047726, , 
56.59,0.047772, , 
56.62,0.047767, , 
56.65,0.047765, , 
56.68,0.047777, , 
56.7,0.047757, , 
56.73,0.047749, , 
56.76,0.047755, , 
56.79,0.0477, , 
56.81,0.04766, , 
56.84,0.047645, , 
56.87,0.047578, , 
56.9,0.047519, , 
56.92,0.047481, , 
56.96,0.047407, , 
56.98,0.047309, , 
57.01,0.047241, , 
57.03,0.047159, , 
57.06,0.047092, , 
57.09,0.04701, , 
57.12,0.046938, , 
57.15,0.046836, , 
57.17,0.046769, , 
57.2,0.046694, , 
57.23,0.046573, , 
57.26,0.046474, , 
57.28,0.046411, , 
57.31,0.046286, , 
57.34,0.046184, , 
57.37,0.046123, , 
57.4,0.046025, , 
57.42,0.045906, , 
57.45,0.045825, , 
57.48,0.045747, , 
57.5,0.045657, , 
57.53,0.045532, , 
57.56,0.045478, , 
57.59,0.045365, , 
57.61,0.045297, , 
57.64,0.045219, , 
57.67,0.045139, , 
57.7,0.045068, , 
57.72,0.045021, , 
57.75,0.044928, , 
57.78,0.04485, , 
57.81,0.04481, , 
57.83,0.044745, , 
57.86,0.044702, , 
57.89,0.044631, , 
57.91,0.04458, , 
57.94,0.04451, , 
57.97,0.044479, , 
58,0.044434, , 
58.02,0.044326, , 
58.05,0.044293, , 
58.08,0.044258, , 
58.11,0.044175, , 
58.14,0.044098, , 
58.16,0.044057, , 
58.19,0.043977, , 
58.22,0.043913, , 
58.24,0.043882, , 
58.27,0.043814, , 
58.3,0.043744, , 
58.33,0.043731, , 
58.35,0.04363, , 
58.38,0.043521, , 
58.41,0.043478, , 
58.44,0.043422, , 
58.47,0.043341, , 
58.49,0.043303, , 
58.52,0.043251, , 
58.55,0.043155, , 
58.58,0.043136, , 
58.6,0.043058, , 
58.63,0.042936, , 
58.66,0.042873, , 
58.69,0.042828, , 
58.71,0.042746, , 
58.74,0.042655, , 
58.77,0.042616, , 
58.8,0.042535, , 
58.82,0.042473, , 
58.85,0.042416, , 
58.88,0.042306, , 
58.91,0.042235, , 
58.93,0.042189, , 
58.96,0.042109, , 
58.99,0.042033, , 
59.02,0.041998, , 
59.04,0.041953, , 
59.07,0.041845, , 
59.1,0.041835, , 
59.13,0.04177, , 
59.15,0.041688, , 
59.18,0.041628, , 
59.21,0.041595, , 
59.23,0.041538, , 
59.26,0.041479, , 
59.29,0.041457, , 
59.32,0.04139, , 
59.34,0.041322, , 
59.37,0.041301, , 
59.4,0.041262, , 
59.43,0.041174, , 
59.45,0.041168, , 
59.48,0.041127, , 
59.51,0.041057, , 
59.54,0.041017, , 
59.56,0.040972, , 
59.59,0.040911, , 
59.62,0.04089, , 
59.65,0.040865, , 
59.67,0.040798, , 
59.7,0.040765, , 
59.73,0.040759, , 
59.76,0.040697, , 
59.78,0.040652, , 
59.81,0.040658, , 
59.84,0.04065, , 
59.87,0.040606, , 
59.9,0.040589, , 
59.92,0.040566, , 
59.95,0.040533, , 
59.98,0.04052, , 
60.01,0.040534, , 
60.03,0.040467, , 
60.06,0.040438, , 
60.09,0.04042, , 
60.12,0.040405, , 
60.14,0.040385, , 
60.17,0.040391, , 
60.2,0.040357, , 
60.23,0.040302, , 
60.25,0.040289, , 
60.28,0.040283, , 
60.31,0.040259, , 
60.34,0.040267, , 
60.37,0.040266, , 
60.39,0.040258, , 
60.42,0.040274, , 
60.45,0.040293, , 
60.47,0.040313, , 
60.5,0.04035, , 
60.53,0.040382, , 
60.56,0.040405, , 
60.58,0.040461, , 
60.61,0.040523, , 
60.64,0.040558, , 
60.66,0.040601, , 
60.69,0.040714, , 
60.72,0.040764, , 
60.75,0.040816, , 
60.77,0.040889, , 
60.81,0.04102, , 
60.83,0.04111, , 
60.86,0.041217, , 
60.88,0.041326, , 
60.91,0.04146, , 
60.94,0.04159, , 
60.97,0.041725, , 
60.99,0.041845, , 
61.02,0.04201, , 
61.05,0.042179, , 
61.08,0.04234, , 
61.1,0.042468, , 
61.13,0.04271, , 
61.16,0.042859, , 
61.19,0.043035, , 
61.22,0.043198, , 
61.24,0.043427, , 
61.27,0.043584, , 
61.3,0.043789, , 
61.33,0.043958, , 
61.35,0.044157, , 
61.38,0.044366, , 
61.41,0.044556, , 
61.44,0.044712, , 
61.46,0.044911, , 
61.49,0.045107, , 
61.52,0.045277, , 
61.55,0.045423, , 
61.57,0.04562, , 
61.6,0.045735, , 
61.63,0.045883, , 
61.66,0.046012, , 
61.68,0.046208, , 
61.71,0.046325, , 
61.74,0.046468, , 
61.77,0.046552, , 
61.79,0.046653, , 
61.82,0.04677, , 
61.85,0.046834, , 
61.88,0.046873, , 
61.9,0.04695, , 
61.93,0.047009, , 
61.96,0.047044, , 
61.99,0.047084, , 
62.01,0.047133, , 
62.04,0.04712, , 
62.07,0.047124, , 
62.09,0.047134, , 
62.12,0.047116, , 
62.15,0.047094, , 
62.18,0.047087, , 
62.2,0.04704, , 
62.23,0.047, , 
62.26,0.046988, , 
62.29,0.046939, , 
62.31,0.046893, , 
62.34,0.046846, , 
62.37,0.046786, , 
62.4,0.046697, , 
62.42,0.046647, , 
62.45,0.046608, , 
62.48,0.046501, , 
62.51,0.046421, , 
62.53,0.046364, , 
62.56,0.046274, , 
62.59,0.046228, , 
62.62,0.046151, , 
62.65,0.04606, , 
62.67,0.045984, , 
62.7,0.045922, , 
62.73,0.045856, , 
62.76,0.045757, , 
62.78,0.045719, , 
62.81,0.045649, , 
62.84,0.045582, , 
62.87,0.045504, , 
62.89,0.045406, , 
62.92,0.045285, , 
62.95,0.04524, , 
62.98,0.045156, , 
63,0.045066, , 
63.03,0.045014, , 
63.06,0.044975, , 
63.09,0.044868, , 
63.11,0.044801, , 
63.14,0.044743, , 
63.17,0.044654, , 
63.2,0.0446, , 
63.22,0.044517, , 
63.25,0.044428, , 
63.28,0.044355, , 
63.31,0.044302, , 
63.33,0.044258, , 
63.36,0.044154, , 
63.39,0.044092, , 
63.41,0.044019, , 
63.44,0.043934, , 
63.47,0.043879, , 
63.5,0.043796, , 
63.52,0.043695, , 
63.55,0.043645, , 
63.58,0.043601, , 
63.61,0.043493, , 
63.63,0.043438, , 
63.66,0.043388, , 
63.69,0.043311, , 
63.72,0.043211, , 
63.74,0.04314, , 
63.78,0.04306, , 
63.8,0.043016, , 
63.83,0.042964, , 
63.85,0.042904, , 
63.88,0.04283, , 
63.91,0.04278, , 
63.94,0.042734, , 
63.97,0.042628, , 
63.99,0.042583, , 
64.02,0.042542, , 
64.05,0.042456, , 
64.08,0.042417, , 
64.1,0.042355, , 
64.13,0.042295, , 
64.16,0.042274, , 
64.19,0.04224, , 
64.21,0.0422, , 
64.24,0.042132, , 
64.27,0.0421, , 
64.3,0.042052, , 
64.32,0.042033, , 
64.35,0.041998, , 
64.38,0.041959, , 
64.41,0.041889, , 
64.43,0.041863, , 
64.46,0.041831, , 
64.49,0.041783, , 
64.52,0.041779, , 
64.54,0.041781, , 
64.57,0.041759, , 
64.6,0.041754, , 
64.63,0.041763, , 
64.65,0.041747, , 
64.68,0.041757, , 
64.71,0.041784, , 
64.73,0.041757, , 
64.76,0.041759, , 
64.79,0.041821, , 
64.82,0.041844, , 
64.84,0.041877, , 
64.87,0.04194, , 
64.9,0.042006, , 
64.93,0.042048, , 
64.95,0.042152, , 
64.98,0.04224, , 
65.01,0.042372, , 
65.04,0.042481, , 
65.06,0.042592, , 
65.09,0.042668, , 
65.12,0.042813, , 
65.15,0.042988, , 
65.17,0.043118, , 
65.2,0.043237, , 
65.23,0.043442, , 
65.26,0.043596, , 
65.28,0.043777, , 
65.31,0.043958, , 
65.34,0.044182, , 
65.37,0.044344, , 
65.39,0.044521, , 
65.42,0.044687, , 
65.45,0.044948, , 
65.48,0.045172, , 
65.5,0.045365, , 
65.53,0.045504, , 
65.56,0.045712, , 
65.59,0.045895, , 
65.61,0.046066, , 
65.64,0.046221, , 
65.67,0.04644, , 
65.7,0.046556, , 
65.72,0.046696, , 
65.75,0.046844, , 
65.78,0.046976, , 
65.81,0.047072, , 
65.83,0.047199, , 
65.86,0.047257, , 
65.89,0.047356, , 
65.92,0.04746, , 
65.94,0.047529, , 
65.97,0.047594, , 
66,0.047636, , 
66.03,0.047705, , 
66.06,0.04772, , 
66.08,0.047742, , 
66.11,0.047769, , 
66.14,0.047764, , 
66.17,0.047755, , 
66.19,0.047775, , 
66.22,0.047751, , 
66.25,0.047724, , 
66.28,0.047687, , 
66.3,0.047629, , 
66.33,0.04757, , 
66.36,0.047525, , 
66.39,0.047446, , 
66.41,0.047376, , 
66.44,0.047333, , 
66.47,0.047273, , 
66.5,0.047166, , 
66.52,0.047093, , 
66.55,0.04699, , 
66.58,0.046912, , 
66.61,0.04681, , 
66.63,0.046732, , 
66.66,0.046617, , 
66.69,0.046547, , 
66.72,0.04644, , 
66.74,0.046329, , 
66.77,0.04622, , 
66.8,0.046146, , 
66.83,0.046018, , 
66.85,0.04589, , 
66.88,0.045804, , 
66.91,0.045721, , 
66.94,0.045577, , 
66.96,0.045493, , 
66.99,0.045373, , 
67.02,0.045279, , 
67.05,0.045169, , 
67.07,0.045053, , 
67.1,0.044931, , 
67.13,0.044867, , 
67.16,0.044771, , 
67.18,0.044675, , 
67.21,0.044605, , 
67.24,0.044542, , 
67.27,0.044439, , 
67.29,0.044388, , 
67.32,0.044348, , 
67.35,0.044293, , 
67.38,0.044192, , 
67.4,0.044165, , 
67.43,0.0441, , 
67.46,0.044046, , 
67.48,0.044042, , 
67.51,0.044029, , 
67.54,0.044006, , 
67.57,0.044034, , 
67.59,0.044028, , 
67.62,0.044014, , 
67.65,0.044019, , 
67.68,0.044023, , 
67.7,0.044025, , 
67.73,0.044065, , 
67.76,0.044131, , 
67.79,0.044161, , 
67.81,0.044251, , 
67.84,0.044334, , 
67.87,0.044421, , 
67.9,0.044539, , 
67.92,0.044683, , 
67.95,0.044774, , 
67.98,0.044935, , 
68.01,0.045121, , 
68.03,0.045293, , 
68.06,0.045437, , 
68.09,0.045645, , 
68.12,0.045836, , 
68.14,0.046003, , 
68.17,0.046155, , 
68.2,0.046403, , 
68.23,0.046551, , 
68.25,0.046737, , 
68.28,0.046877, , 
68.31,0.047012, , 
68.34,0.04718, , 
68.36,0.047342, , 
68.39,0.047441, , 
68.42,0.047588, , 
68.45,0.047712, , 
68.47,0.047784, , 
68.5,0.047843, , 
68.53,0.047948, , 
68.56,0.048014, , 
68.58,0.048078, , 
68.61,0.04815, , 
68.64,0.048231, , 
68.67,0.048254, , 
68.69,0.048309, , 
68.72,0.048308, , 
68.75,0.048251, , 
68.78,0.048251, , 
68.81,0.048243, , 
68.83,0.048192, , 
68.86,0.048145, , 
68.89,0.048145, , 
68.92,0.048066, , 
68.94,0.048018, , 
68.97,0.047955, , 
69,0.047853, , 
69.03,0.047778, , 
69.05,0.047741, , 
69.08,0.047636, , 
69.11,0.047531, , 
69.14,0.047446, , 
69.16,0.047344, , 
69.19,0.047216, , 
69.22,0.047116, , 
69.25,0.046999, , 
69.27,0.046927, , 
69.3,0.046812, , 
69.33,0.046732, , 
69.36,0.046604, , 
69.38,0.046524, , 
69.41,0.046477, , 
69.44,0.046351, , 
69.47,0.046278, , 
69.49,0.046205, , 
69.52,0.046121, , 
69.55,0.046089, , 
69.58,0.046045, , 
69.6,0.045971, , 
69.63,0.045905, , 
69.66,0.045902, , 
69.69,0.045898, , 
69.71,0.045891, , 
69.74,0.045891, , 
69.77,0.045889, , 
69.8,0.045924, , 
69.82,0.045984, , 
69.85,0.046029, , 
69.88,0.046069, , 
69.91,0.046153, , 
69.93,0.04623, , 
69.96,0.046285, , 
69.99,0.046359, , 
70.02,0.046444, , 
70.04,0.046512, , 
70.07,0.046611, , 
70.1,0.04669, , 
70.13,0.046784, , 
70.15,0.046865, , 
70.18,0.046971, , 
70.21,0.047021, , 
70.23,0.047109, , 
70.26,0.04722, , 
70.29,0.047267, , 
70.32,0.047313, , 
70.34,0.047424, , 
70.37,0.04747, , 
70.4,0.047473, , 
70.43,0.047521, , 
70.45,0.047584, , 
70.48,0.047586, , 
70.51,0.047619, , 
70.54,0.047635, , 
70.56,0.047622, , 
70.59,0.047594, , 
70.62,0.047564, , 
70.65,0.047539, , 
70.67,0.047501, , 
70.7,0.047485, , 
70.73,0.047421, , 
70.76,0.047387, , 
70.78,0.047339, , 
70.81,0.047282, , 
70.84,0.047228, , 
70.87,0.047189, , 
70.89,0.047144, , 
70.92,0.047029, , 
70.95,0.046982, , 
70.98,0.046931, , 
71,0.046863, , 
71.03,0.04684, , 
71.06,0.046789, , 
71.09,0.046712, , 
71.11,0.046675, , 
71.14,0.046677, , 
71.17,0.046631, , 
71.2,0.0466, , 
71.22,0.046577, , 
71.25,0.046543, , 
71.28,0.046518, , 
71.31,0.046535, , 
71.33,0.046516, , 
71.36,0.046505, , 
71.39,0.046525, , 
71.42,0.046512, , 
71.44,0.046505, , 
71.47,0.046557, , 
71.5,0.046602, , 
71.53,0.046601, , 
71.56,0.04663, , 
71.58,0.046641, , 
71.61,0.046664, , 
71.64,0.046711, , 
71.67,0.046751, , 
71.69,0.046758, , 
71.72,0.046762, , 
71.75,0.046775, , 
71.78,0.046785, , 
71.8,0.046821, , 
71.83,0.046877, , 
71.86,0.046872, , 
71.89,0.046866, , 
71.91,0.046886, , 
71.94,0.046893, , 
71.97,0.046879, , 
72,0.046893, , 
72.02,0.046887, , 
72.05,0.046853, , 
72.08,0.046826, , 
72.11,0.046806, , 
72.13,0.046776, , 
72.16,0.046771, , 
72.19,0.046785, , 
72.22,0.046758, , 
72.24,0.046754, , 
72.27,0.046724, , 
72.3,0.046664, , 
72.33,0.046639, , 
72.35,0.046653, , 
72.38,0.046629, , 
72.41,0.04662, , 
72.44,0.046628, , 
72.46,0.046609, , 
72.49,0.04657, , 
72.52,0.046564, , 
72.55,0.046524, , 
72.57,0.046507, , 
72.6,0.046526, , 
72.63,0.046518, , 
72.66,0.046492, , 
72.69,0.046483, , 
72.71,0.046453, , 
72.74,0.046399, , 
72.77,0.046404, , 
72.79,0.046397, , 
72.82,0.046385, , 
72.85,0.046382, , 
72.88,0.046379, , 
72.9,0.046308, , 
72.93,0.046277, , 
72.96,0.046274, , 
72.98,0.046258, , 
73.01,0.046237, , 
73.04,0.046216, , 
73.07,0.046168, , 
73.09,0.046105, , 
73.12,0.046078, , 
73.15,0.046018, , 
73.18,0.045915, , 
73.21,0.045899, , 
73.23,0.045788, , 
73.26,0.045677, , 
73.29,0.045567, , 
73.31,0.045452, , 
73.35,0.045315, , 
73.37,0.045235, , 
73.4,0.045128, , 
73.42,0.044992, , 
73.45,0.044847, , 
73.48,0.044772, , 
73.51,0.044563, , 
73.53,0.044446, , 
73.56,0.044375, , 
73.59,0.044244, , 
73.62,0.044131, , 
73.64,0.043957, , 
73.67,0.043754, , 
73.7,0.043586, , 
73.73,0.043551, , 
73.75,0.043327, , 
73.78,0.043115, , 
73.81,0.042982, , 
73.84,0.042818, , 
73.86,0.042678, , 
73.89,0.042478, , 
73.92,0.042326, , 
73.95,0.042144, , 
73.97,0.041993, , 
74,0.041915, , 
74.03,0.041729, , 
74.06,0.041613, , 
74.08,0.041531, , 
74.11,0.041384, , 
74.14,0.041279, , 
74.17,0.041157, , 
74.19,0.041018, , 
74.22,0.040903, , 
74.25,0.040833, , 
74.28,0.040708, , 
74.31,0.040607, , 
74.33,0.040533, , 
74.36,0.040463, , 
74.39,0.040321, , 
74.42,0.040237, , 
74.44,0.040165, , 
74.47,0.040092, , 
74.5,0.040008, , 
74.53,0.039953, , 
74.55,0.039884, , 
74.58,0.039846, , 
74.61,0.039789, , 
74.64,0.039705, , 
74.66,0.039615, , 
74.69,0.039585, , 
74.72,0.039522, , 
74.75,0.039454, , 
74.77,0.039425, , 
74.8,0.039375, , 
74.83,0.039306, , 
74.86,0.039302, , 
74.88,0.039274, , 
74.91,0.039224, , 
74.94,0.039185, , 
74.97,0.03914, , 
74.99,0.03907, , 
75.02,0.039047, , 
75.05,0.039, , 
75.08,0.038928, , 
75.1,0.038889, , 
75.13,0.038851, , 
75.16,0.038788, , 
75.19,0.03877, , 
75.21,0.03874, , 
75.24,0.038695, , 
75.27,0.038652, , 
75.3,0.038651, , 
75.32,0.038573, , 
75.35,0.038542, , 
75.38,0.038533, , 
75.41,0.038513, , 
75.43,0.038499, , 
75.46,0.038516, , 
75.49,0.038489, , 
75.52,0.038417, , 
75.54,0.038415, , 
75.57,0.038411, , 
75.6,0.038366, , 
75.63,0.038345, , 
75.65,0.03832, , 
75.68,0.038286, , 
75.71,0.038267, , 
75.73,0.038252, , 
75.76,0.038195, , 
75.79,0.038174, , 
75.82,0.038176, , 
75.84,0.038142, , 
75.87,0.038111, , 
75.9,0.038084, , 
75.93,0.038034, , 
75.95,0.03802, , 
75.98,0.038026, , 
76.01,0.038022, , 
76.04,0.038009, , 
76.06,0.03801, , 
76.09,0.038002, , 
76.12,0.037959, , 
76.15,0.037935, , 
76.17,0.03792, , 
76.2,0.037884, , 
76.23,0.037876, , 
76.26,0.037889, , 
76.28,0.037873, , 
76.31,0.037819, , 
76.34,0.037797, , 
76.37,0.037763, , 
76.39,0.037755, , 
76.42,0.037763, , 
76.45,0.037702, , 
76.48,0.037661, , 
76.5,0.037657, , 
76.53,0.037644, , 
76.56,0.037628, , 
76.59,0.037644, , 
76.61,0.037646, , 
76.64,0.037622, , 
76.67,0.037613, , 
76.7,0.037589, , 
76.72,0.03755, , 
76.75,0.037528, , 
76.78,0.037528, , 
76.81,0.037505, , 
76.83,0.037507, , 
76.86,0.037529, , 
76.89,0.037505, , 
76.92,0.037521, , 
76.94,0.037533, , 
76.97,0.037519, , 
77,0.037511, , 
77.03,0.037526, , 
77.06,0.037511, , 
77.08,0.037472, , 
77.11,0.037446, , 
77.14,0.037405, , 
77.17,0.037386, , 
77.19,0.037406, , 
77.22,0.0374, , 
77.25,0.037376, , 
77.28,0.037396, , 
77.3,0.037405, , 
77.33,0.037384, , 
77.36,0.037392, , 
77.39,0.037405, , 
77.41,0.037377, , 
77.44,0.037382, , 
77.47,0.037402, , 
77.5,0.037387, , 
77.52,0.037375, , 
77.55,0.037393, , 
77.58,0.037391, , 
77.61,0.037375, , 
77.63,0.037389, , 
77.66,0.03739, , 
77.69,0.03735, , 
77.72,0.037316, , 
77.74,0.037289, , 
77.77,0.037281, , 
77.8,0.037297, , 
77.83,0.03728, , 
77.85,0.037248, , 
77.88,0.037262, , 
77.91,0.037276, , 
77.94,0.037244, , 
77.96,0.03726, , 
77.99,0.037273, , 
78.02,0.037264, , 
78.05,0.037272, , 
78.07,0.037286, , 
78.1,0.037269, , 
78.13,0.037262, , 
78.16,0.037283, , 
78.18,0.03727, , 
78.21,0.037254, , 
78.24,0.037274, , 
78.27,0.037262, , 
78.29,0.03725, , 
78.32,0.037272, , 
78.35,0.037279, , 
78.38,0.037258, , 
78.4,0.037276, , 
78.43,0.037248, , 
78.46,0.037182, , 
78.48,0.037173, , 
78.51,0.037161, , 
78.54,0.037137, , 
78.57,0.037148, , 
78.59,0.03716, , 
78.62,0.037131, , 
78.65,0.037132, , 
78.68,0.037137, , 
78.7,0.037095, , 
78.74,0.037043, , 
78.76,0.037028, , 
78.79,0.037001, , 
78.81,0.036996, , 
78.84,0.037024, , 
78.87,0.037016, , 
78.9,0.037003, , 
78.92,0.036978, , 
78.95,0.036936, , 
78.98,0.036899, , 
79.01,0.036901, , 
79.03,0.036903, , 
79.06,0.036888, , 
79.09,0.036909, , 
79.12,0.036905, , 
79.14,0.036884, , 
79.18,0.036887, , 
79.2,0.036904, , 
79.23,0.036859, , 
79.23,0.036859, , 
79.37,0.03682, , 