Gradient Profiler Text Data File: 20160110_ingolia_plusrnase.csv,,,
Version: 1.88,,,
Date: 2016-01-10,,,
Time: 19:27:09,,,
,,,
User: Alicia,,,
Experiment name: 20160110_RNaseIcheck_andreevvsingolia,,,
UV Unit: EM-1,,,
Rotor Manufacturer: Beckman,,,
Rotor Model: SW41Ti,,,
Speed: 35000 rpm,,,
Gradient: sucrose 10.0% to 50.0% w/v,,,
Time: 180,,,
w2t:  x 10^0,,,
Sample Volume: 0.15 ml,,,
Number of Tubes: 6,,,
Volume per mm: 0.143 ml/mm,,,
Temperature: 4.0 deg C,,,
,,,
Absorbance Units Full Scale (AUFS): 0.50,,,
Manual-triggered gradient; (with distance; but no event marks),,,
Delay: No Delay,,,
UV Wavelength: 254 nm,,,
Samples / sec: 4 Hz,,,
EM1 Speed: 0.22 mm/sec,,,
Distance: 4.33 mm,,,
Number: 24,,,
Dead Volume: 0.000000 ml; Distance due to Dead Volume: 0.00 mm,,,
Length of Tubing: 0 mm,,,
Total Distance: 103.92 mm,,,
,,,
Data Columns:,,,
Distance, Absorbance,,
0.06,0.033289, , 
0.11,0.033671, , 
0.17,0.034256, , 
0.22,0.034922, , 
0.28,0.035986, , 
0.33,0.038718, , 
0.39,0.043418, , 
0.44,0.049397, , 
0.5,0.056926, , 
0.55,0.062785, , 
0.6,0.073531, , 
0.66,0.081624, , 
0.71,0.086963, , 
0.77,0.092668, , 
0.83,0.109428, , 
0.88,0.123956, , 
0.94,0.125064, , 
0.99,0.120525, , 
1.04,0.114931, , 
1.1,0.10942, , 
1.16,0.102334, , 
1.21,0.081756, , 
1.26,0.062067, , 
1.32,0.057486, , 
1.38,0.054419, , 
1.43,0.054016, , 
1.49,0.053707, , 
1.54,0.053406, , 
1.6,0.053169, , 
1.65,0.052837, , 
1.71,0.052546, , 
1.76,0.052265, , 
1.81,0.051966, , 
1.87,0.051682, , 
1.93,0.051396, , 
1.98,0.051097, , 
2.04,0.050814, , 
2.09,0.050519, , 
2.15,0.050269, , 
2.2,0.05005, , 
2.25,0.049788, , 
2.31,0.049557, , 
2.37,0.049328, , 
2.42,0.049102, , 
2.48,0.04891, , 
2.53,0.048703, , 
2.59,0.048504, , 
2.64,0.048323, , 
2.69,0.048164, , 
2.75,0.048005, , 
2.81,0.047837, , 
2.86,0.047664, , 
2.92,0.047521, , 
2.97,0.047386, , 
3.02,0.047265, , 
3.08,0.047144, , 
3.13,0.047013, , 
3.19,0.046857, , 
3.25,0.046723, , 
3.3,0.046593, , 
3.36,0.046482, , 
3.41,0.046357, , 
3.46,0.046218, , 
3.52,0.046114, , 
3.58,0.046033, , 
3.63,0.045957, , 
3.69,0.045876, , 
3.74,0.045767, , 
3.8,0.04568, , 
3.85,0.045617, , 
3.9,0.045539, , 
3.96,0.045469, , 
4.01,0.0454, , 
4.07,0.045325, , 
4.13,0.045272, , 
4.18,0.04522, , 
4.24,0.045156, , 
4.29,0.045139, , 
4.34,0.045085, , 
4.4,0.045033, , 
4.46,0.045051, , 
4.51,0.046976, , 
4.57,0.06334, , 
4.62,0.109068, , 
4.67,0.171189, , 
4.73,0.233142, , 
4.79,0.300197, , 
4.84,0.363269, , 
4.89,0.429273, , 
4.95,0.480847, , 
5,0.503229, , 
5.06,0.509609, , 
5.12,0.510948, , 
5.17,0.511275, , 
5.22,0.511402, , 
5.28,0.51149, , 
5.34,0.51155, , 
5.39,0.511582, , 
5.45,0.511603, , 
5.5,0.511631, , 
5.55,0.511624, , 
5.61,0.511635, , 
5.67,0.511652, , 
5.72,0.511665, , 
5.78,0.511697, , 
5.83,0.511739, , 
5.88,0.511697, , 
5.94,0.51169, , 
6,0.511704, , 
6.05,0.511737, , 
6.11,0.51175, , 
6.16,0.511742, , 
6.21,0.511737, , 
6.27,0.511745, , 
6.33,0.511745, , 
6.38,0.511743, , 
6.43,0.511753, , 
6.49,0.511753, , 
6.54,0.511762, , 
6.6,0.511782, , 
6.66,0.511785, , 
6.71,0.511774, , 
6.76,0.511774, , 
6.82,0.511794, , 
6.88,0.511786, , 
6.93,0.511781, , 
6.99,0.511802, , 
7.04,0.511821, , 
7.09,0.511791, , 
7.15,0.511788, , 
7.21,0.511764, , 
7.26,0.511217, , 
7.32,0.509627, , 
7.37,0.506921, , 
7.42,0.502603, , 
7.48,0.496997, , 
7.54,0.49057, , 
7.59,0.482162, , 
7.64,0.473362, , 
7.7,0.46359, , 
7.75,0.453708, , 
7.81,0.444311, , 
7.87,0.434148, , 
7.92,0.423998, , 
7.97,0.414703, , 
8.03,0.404915, , 
8.09,0.395167, , 
8.14,0.385937, , 
8.2,0.376125, , 
8.25,0.36702, , 
8.3,0.357356, , 
8.36,0.347809, , 
8.41,0.338973, , 
8.47,0.32969, , 
8.53,0.320708, , 
8.58,0.312615, , 
8.63,0.304254, , 
8.69,0.296625, , 
8.74,0.288484, , 
8.8,0.280313, , 
8.86,0.272832, , 
8.91,0.265053, , 
8.96,0.257347, , 
9.02,0.250287, , 
9.07,0.242987, , 
9.13,0.236495, , 
9.19,0.22991, , 
9.24,0.223565, , 
9.29,0.217901, , 
9.35,0.21223, , 
9.4,0.20684, , 
9.46,0.201936, , 
9.52,0.196671, , 
9.57,0.191808, , 
9.63,0.186666, , 
9.68,0.181365, , 
9.73,0.176331, , 
9.79,0.170929, , 
9.85,0.165545, , 
9.9,0.160852, , 
9.96,0.156204, , 
10.01,0.151815, , 
10.07,0.148076, , 
10.12,0.144449, , 
10.18,0.141455, , 
10.23,0.138975, , 
10.29,0.137183, , 
10.34,0.135727, , 
10.4,0.134266, , 
10.45,0.132915, , 
10.51,0.131743, , 
10.56,0.1303, , 
10.62,0.12828, , 
10.67,0.125524, , 
10.73,0.122814, , 
10.78,0.120297, , 
10.84,0.117513, , 
10.89,0.114761, , 
10.95,0.112349, , 
11,0.110072, , 
11.06,0.108126, , 
11.11,0.106006, , 
11.16,0.103915, , 
11.22,0.102029, , 
11.28,0.100111, , 
11.33,0.09829, , 
11.39,0.09664, , 
11.44,0.094955, , 
11.49,0.093417, , 
11.55,0.092034, , 
11.61,0.090626, , 
11.66,0.089361, , 
11.72,0.088015, , 
11.77,0.086753, , 
11.82,0.085658, , 
11.88,0.084599, , 
11.94,0.083618, , 
11.99,0.082708, , 
12.05,0.081713, , 
12.1,0.080772, , 
12.15,0.079817, , 
12.21,0.078867, , 
12.27,0.078031, , 
12.32,0.077269, , 
12.38,0.076609, , 
12.43,0.076065, , 
12.48,0.07558, , 
12.54,0.075154, , 
12.6,0.074634, , 
12.65,0.073972, , 
12.71,0.073265, , 
12.76,0.072537, , 
12.82,0.071882, , 
12.87,0.07134, , 
12.93,0.07082, , 
12.98,0.070354, , 
13.04,0.069828, , 
13.09,0.069277, , 
13.15,0.068804, , 
13.2,0.068254, , 
13.26,0.067575, , 
13.31,0.066918, , 
13.37,0.066277, , 
13.42,0.065703, , 
13.48,0.06524, , 
13.53,0.064827, , 
13.59,0.064492, , 
13.64,0.064194, , 
13.7,0.063843, , 
13.75,0.06348, , 
13.81,0.063056, , 
13.86,0.062607, , 
13.91,0.062108, , 
13.97,0.061433, , 
14.03,0.060755, , 
14.08,0.060134, , 
14.14,0.059594, , 
14.19,0.059141, , 
14.24,0.058723, , 
14.3,0.058325, , 
14.36,0.05796, , 
14.41,0.057588, , 
14.47,0.057278, , 
14.52,0.056934, , 
14.57,0.056549, , 
14.63,0.056204, , 
14.69,0.055837, , 
14.74,0.055506, , 
14.8,0.05521, , 
14.85,0.054858, , 
14.9,0.054541, , 
14.96,0.054261, , 
15.02,0.054018, , 
15.07,0.053785, , 
15.13,0.053546, , 
15.18,0.053341, , 
15.23,0.05313, , 
15.29,0.052912, , 
15.35,0.052706, , 
15.4,0.052513, , 
15.46,0.05228, , 
15.51,0.052074, , 
15.57,0.051812, , 
15.62,0.051561, , 
15.68,0.051445, , 
15.73,0.051229, , 
15.79,0.051022, , 
15.84,0.050845, , 
15.9,0.050686, , 
15.95,0.050585, , 
16,0.050469, , 
16.06,0.050326, , 
16.11,0.050201, , 
16.17,0.050066, , 
16.23,0.049929, , 
16.28,0.049818, , 
16.34,0.049706, , 
16.39,0.049573, , 
16.45,0.049452, , 
16.5,0.049324, , 
16.56,0.049169, , 
16.61,0.049009, , 
16.66,0.048886, , 
16.72,0.048751, , 
16.77,0.048571, , 
16.83,0.048412, , 
16.89,0.048294, , 
16.94,0.048248, , 
17,0.048266, , 
17.05,0.048241, , 
17.11,0.048181, , 
17.16,0.048117, , 
17.22,0.048049, , 
17.27,0.048024, , 
17.32,0.047996, , 
17.38,0.047934, , 
17.43,0.0479, , 
17.49,0.047909, , 
17.55,0.047965, , 
17.6,0.048047, , 
17.66,0.048152, , 
17.71,0.048301, , 
17.77,0.048492, , 
17.82,0.048752, , 
17.88,0.049026, , 
17.93,0.049336, , 
17.98,0.049751, , 
18.04,0.050225, , 
18.09,0.050794, , 
18.15,0.051318, , 
18.2,0.051844, , 
18.26,0.052402, , 
18.32,0.053013, , 
18.37,0.053681, , 
18.43,0.054311, , 
18.48,0.054878, , 
18.54,0.055536, , 
18.59,0.056194, , 
18.65,0.056869, , 
18.7,0.057538, , 
18.75,0.058222, , 
18.81,0.058807, , 
18.86,0.05943, , 
18.92,0.059932, , 
18.98,0.060409, , 
19.03,0.060846, , 
19.09,0.061162, , 
19.14,0.06146, , 
19.2,0.061651, , 
19.25,0.061772, , 
19.31,0.061856, , 
19.36,0.061852, , 
19.41,0.061777, , 
19.47,0.061633, , 
19.52,0.061422, , 
19.58,0.061127, , 
19.64,0.060776, , 
19.69,0.060387, , 
19.75,0.059966, , 
19.8,0.059492, , 
19.86,0.058947, , 
19.91,0.058348, , 
19.97,0.057823, , 
20.02,0.057299, , 
20.07,0.056761, , 
20.13,0.056213, , 
20.18,0.055641, , 
20.24,0.055109, , 
20.3,0.054602, , 
20.35,0.054039, , 
20.41,0.053543, , 
20.46,0.05303, , 
20.52,0.052532, , 
20.57,0.05207, , 
20.63,0.051648, , 
20.68,0.05123, , 
20.73,0.050859, , 
20.79,0.050472, , 
20.84,0.050127, , 
20.9,0.049817, , 
20.95,0.049508, , 
21.01,0.049213, , 
21.07,0.048894, , 
21.12,0.048631, , 
21.18,0.048355, , 
21.23,0.048117, , 
21.29,0.047901, , 
21.34,0.047697, , 
21.4,0.047507, , 
21.45,0.047348, , 
21.5,0.047183, , 
21.56,0.047016, , 
21.61,0.046846, , 
21.67,0.046707, , 
21.73,0.04659, , 
21.78,0.046473, , 
21.84,0.046317, , 
21.89,0.046185, , 
21.95,0.04606, , 
22,0.045938, , 
22.06,0.045822, , 
22.11,0.045716, , 
22.16,0.045571, , 
22.22,0.045458, , 
22.27,0.04535, , 
22.33,0.045224, , 
22.39,0.045144, , 
22.44,0.045056, , 
22.5,0.044974, , 
22.55,0.044879, , 
22.61,0.044791, , 
22.66,0.044728, , 
22.72,0.04465, , 
22.77,0.044577, , 
22.82,0.044507, , 
22.88,0.04443, , 
22.93,0.044345, , 
22.99,0.044262, , 
23.05,0.044172, , 
23.1,0.044098, , 
23.16,0.044027, , 
23.21,0.043941, , 
23.27,0.04385, , 
23.32,0.043791, , 
23.38,0.043752, , 
23.43,0.043687, , 
23.48,0.043616, , 
23.54,0.043542, , 
23.59,0.043475, , 
23.65,0.043408, , 
23.7,0.043332, , 
23.76,0.043254, , 
23.82,0.043182, , 
23.87,0.04315, , 
23.93,0.043094, , 
23.98,0.043032, , 
24.04,0.042967, , 
24.09,0.0429, , 
24.15,0.042843, , 
24.2,0.042784, , 
24.25,0.042711, , 
24.31,0.04266, , 
24.36,0.042614, , 
24.42,0.04256, , 
24.48,0.042521, , 
24.53,0.042467, , 
24.59,0.042421, , 
24.64,0.0424, , 
24.7,0.042375, , 
24.75,0.042321, , 
24.81,0.04228, , 
24.86,0.042232, , 
24.91,0.042164, , 
24.97,0.042133, , 
25.02,0.0421, , 
25.08,0.042046, , 
25.14,0.042025, , 
25.19,0.04202, , 
25.25,0.041996, , 
25.3,0.041945, , 
25.36,0.041908, , 
25.41,0.04189, , 
25.47,0.041862, , 
25.52,0.041805, , 
25.58,0.041774, , 
25.63,0.041748, , 
25.68,0.041687, , 
25.74,0.041647, , 
25.8,0.041619, , 
25.85,0.041564, , 
25.91,0.041526, , 
25.96,0.041509, , 
26.02,0.041491, , 
26.07,0.041432, , 
26.13,0.0414, , 
26.18,0.041398, , 
26.23,0.041397, , 
26.29,0.041398, , 
26.34,0.041395, , 
26.4,0.041392, , 
26.45,0.041383, , 
26.51,0.04137, , 
26.57,0.04132, , 
26.62,0.041276, , 
26.68,0.041266, , 
26.73,0.04126, , 
26.79,0.041257, , 
26.84,0.041261, , 
26.9,0.041268, , 
26.95,0.04126, , 
27,0.041216, , 
27.06,0.041164, , 
27.11,0.041149, , 
27.17,0.041134, , 
27.23,0.041132, , 
27.28,0.041138, , 
27.34,0.041138, , 
27.39,0.041141, , 
27.45,0.041132, , 
27.5,0.041129, , 
27.56,0.041143, , 
27.61,0.041144, , 
27.66,0.041137, , 
27.72,0.041146, , 
27.77,0.041148, , 
27.83,0.041136, , 
27.89,0.041148, , 
27.94,0.041209, , 
28,0.04125, , 
28.05,0.041265, , 
28.11,0.041266, , 
28.16,0.041259, , 
28.22,0.041262, , 
28.27,0.041262, , 
28.32,0.041265, , 
28.38,0.041275, , 
28.43,0.041265, , 
28.49,0.041253, , 
28.55,0.041269, , 
28.6,0.041269, , 
28.66,0.041266, , 
28.71,0.041265, , 
28.77,0.041266, , 
28.82,0.041256, , 
28.88,0.04126, , 
28.93,0.041261, , 
28.98,0.041264, , 
29.04,0.041266, , 
29.09,0.041263, , 
29.15,0.041261, , 
29.2,0.041268, , 
29.26,0.041262, , 
29.32,0.041218, , 
29.37,0.041165, , 
29.43,0.041152, , 
29.48,0.041144, , 
29.54,0.041124, , 
29.59,0.041071, , 
29.65,0.041031, , 
29.7,0.041024, , 
29.75,0.041016, , 
29.81,0.040964, , 
29.87,0.040904, , 
29.92,0.04089, , 
29.98,0.040851, , 
30.03,0.040802, , 
30.09,0.040767, , 
30.14,0.040771, , 
30.2,0.040774, , 
30.25,0.040768, , 
30.31,0.040745, , 
30.36,0.040691, , 
30.41,0.040652, , 
30.47,0.040637, , 
30.52,0.0406, , 
30.58,0.04054, , 
30.64,0.040521, , 
30.69,0.040521, , 
30.75,0.040508, , 
30.8,0.040487, , 
30.86,0.040409, , 
30.91,0.040398, , 
30.97,0.040375, , 
31.02,0.040313, , 
31.07,0.040282, , 
31.13,0.040267, , 
31.18,0.040269, , 
31.24,0.040269, , 
31.3,0.040277, , 
31.35,0.04027, , 
31.41,0.040273, , 
31.46,0.040267, , 
31.52,0.040269, , 
31.57,0.040266, , 
31.63,0.040266, , 
31.68,0.04027, , 
31.73,0.04027, , 
31.79,0.040258, , 
31.84,0.040268, , 
31.9,0.040308, , 
31.95,0.040358, , 
32.01,0.040386, , 
32.06,0.04046, , 
32.12,0.040526, , 
32.17,0.040611, , 
32.23,0.040715, , 
32.28,0.040831, , 
32.34,0.040923, , 
32.4,0.04102, , 
32.45,0.041115, , 
32.51,0.041224, , 
32.56,0.041352, , 
32.62,0.041481, , 
32.67,0.041582, , 
32.73,0.04168, , 
32.78,0.041771, , 
32.84,0.041873, , 
32.89,0.041961, , 
32.95,0.042063, , 
33,0.042121, , 
33.06,0.042183, , 
33.11,0.042241, , 
33.16,0.042258, , 
33.22,0.042281, , 
33.28,0.042281, , 
33.33,0.04226, , 
33.38,0.042259, , 
33.44,0.042241, , 
33.49,0.042188, , 
33.55,0.042131, , 
33.6,0.042069, , 
33.66,0.041994, , 
33.72,0.041919, , 
33.77,0.041823, , 
33.83,0.041725, , 
33.88,0.041636, , 
33.94,0.041523, , 
33.99,0.041409, , 
34.05,0.041296, , 
34.1,0.041173, , 
34.16,0.041067, , 
34.21,0.040968, , 
34.27,0.040879, , 
34.32,0.040787, , 
34.38,0.040709, , 
34.43,0.040625, , 
34.48,0.040556, , 
34.54,0.040483, , 
34.59,0.040394, , 
34.65,0.040313, , 
34.7,0.040235, , 
34.76,0.040161, , 
34.81,0.040094, , 
34.87,0.040003, , 
34.92,0.039922, , 
34.98,0.039841, , 
35.03,0.039782, , 
35.09,0.039754, , 
35.15,0.039687, , 
35.2,0.039637, , 
35.26,0.0396, , 
35.31,0.039542, , 
35.37,0.039493, , 
35.42,0.039429, , 
35.48,0.03938, , 
35.53,0.039317, , 
35.59,0.039272, , 
35.64,0.039255, , 
35.7,0.039199, , 
35.75,0.039158, , 
35.81,0.039139, , 
35.86,0.039118, , 
35.91,0.039056, , 
35.97,0.039024, , 
36.02,0.038966, , 
36.08,0.038904, , 
36.13,0.038846, , 
36.19,0.038785, , 
36.24,0.038764, , 
36.3,0.038723, , 
36.35,0.038659, , 
36.41,0.038648, , 
36.47,0.03863, , 
36.52,0.03857, , 
36.58,0.038522, , 
36.63,0.038513, , 
36.69,0.038517, , 
36.74,0.038515, , 
36.8,0.038513, , 
36.85,0.038474, , 
36.91,0.038414, , 
36.96,0.038396, , 
37.02,0.038378, , 
37.07,0.038318, , 
37.13,0.038279, , 
37.18,0.038283, , 
37.23,0.038277, , 
37.29,0.038267, , 
37.34,0.038256, , 
37.4,0.038221, , 
37.45,0.038176, , 
37.51,0.038137, , 
37.56,0.038139, , 
37.62,0.038135, , 
37.67,0.038105, , 
37.73,0.03805, , 
37.78,0.038023, , 
37.84,0.038017, , 
37.9,0.038012, , 
37.95,0.037972, , 
38.01,0.037912, , 
38.06,0.037894, , 
38.12,0.037889, , 
38.17,0.037848, , 
38.23,0.037815, , 
38.28,0.03779, , 
38.34,0.037789, , 
38.39,0.037791, , 
38.45,0.037767, , 
38.5,0.037786, , 
38.56,0.037819, , 
38.61,0.037797, , 
38.66,0.037772, , 
38.72,0.037776, , 
38.77,0.037767, , 
38.83,0.03774, , 
38.88,0.037699, , 
38.94,0.037657, , 
38.99,0.037617, , 
39.05,0.037554, , 
39.1,0.03752, , 
39.16,0.037521, , 
39.22,0.037528, , 
39.27,0.037513, , 
39.33,0.037471, , 
39.38,0.037414, , 
39.44,0.037386, , 
39.49,0.037389, , 
39.55,0.037391, , 
39.6,0.0374, , 
39.66,0.0374, , 
39.71,0.037384, , 
39.77,0.03739, , 
39.82,0.037392, , 
39.88,0.037378, , 
39.93,0.037377, , 
39.98,0.037389, , 
40.04,0.037391, , 
40.09,0.037407, , 
40.15,0.037441, , 
40.2,0.037411, , 
40.26,0.037419, , 
40.31,0.037463, , 
40.37,0.037497, , 
40.42,0.037473, , 
40.48,0.037419, , 
40.53,0.037395, , 
40.59,0.037386, , 
40.65,0.037387, , 
40.7,0.037388, , 
40.76,0.037386, , 
40.81,0.03739, , 
40.87,0.037368, , 
40.92,0.037307, , 
40.98,0.037275, , 
41.03,0.037264, , 
41.09,0.037264, , 
41.14,0.037268, , 
41.2,0.037268, , 
41.25,0.037261, , 
41.31,0.037267, , 
41.36,0.037269, , 
41.41,0.037248, , 
41.47,0.03719, , 
41.52,0.037149, , 
41.58,0.037141, , 
41.63,0.037142, , 
41.69,0.037138, , 
41.74,0.037139, , 
41.8,0.037134, , 
41.85,0.037138, , 
41.91,0.037132, , 
41.97,0.037079, , 
42.02,0.037026, , 
42.08,0.03701, , 
42.13,0.037013, , 
42.19,0.036979, , 
42.24,0.036936, , 
42.3,0.036944, , 
42.35,0.036989, , 
42.41,0.037009, , 
42.46,0.037016, , 
42.52,0.037015, , 
42.57,0.037003, , 
42.63,0.036985, , 
42.68,0.036958, , 
42.73,0.036866, , 
42.79,0.036799, , 
42.84,0.036762, , 
42.9,0.03676, , 
42.95,0.036769, , 
43.01,0.036756, , 
43.06,0.036758, , 
43.12,0.03676, , 
43.17,0.036764, , 
43.23,0.036765, , 
43.28,0.036759, , 
43.34,0.036712, , 
43.4,0.036651, , 
43.45,0.036632, , 
43.51,0.036635, , 
43.56,0.036642, , 
43.62,0.03663, , 
43.67,0.036629, , 
43.73,0.036634, , 
43.78,0.036632, , 
43.84,0.036623, , 
43.89,0.036563, , 
43.95,0.036519, , 
44,0.036518, , 
44.06,0.036517, , 
44.11,0.036508, , 
44.16,0.036466, , 
44.22,0.036406, , 
44.27,0.036392, , 
44.33,0.036376, , 
44.38,0.036337, , 
44.44,0.036288, , 
44.49,0.036282, , 
44.55,0.036267, , 
44.6,0.036263, , 
44.66,0.036266, , 
44.72,0.036275, , 
44.77,0.036269, , 
44.83,0.036211, , 
44.88,0.036163, , 
44.94,0.036149, , 
44.99,0.036142, , 
45.05,0.036133, , 
45.1,0.036094, , 
45.16,0.036051, , 
45.21,0.036028, , 
45.27,0.036015, , 
45.32,0.035984, , 
45.38,0.035924, , 
45.43,0.03589, , 
45.48,0.035884, , 
45.54,0.035887, , 
45.59,0.035845, , 
45.65,0.035788, , 
45.7,0.035758, , 
45.76,0.035765, , 
45.81,0.03577, , 
45.87,0.035765, , 
45.92,0.035765, , 
45.98,0.03576, , 
46.03,0.035758, , 
46.09,0.035728, , 
46.15,0.035661, , 
46.2,0.035642, , 
46.26,0.035634, , 
46.31,0.035634, , 
46.37,0.035637, , 
46.42,0.035611, , 
46.48,0.035545, , 
46.53,0.035504, , 
46.59,0.0355, , 
46.64,0.035515, , 
46.7,0.035512, , 
46.75,0.035505, , 
46.81,0.035505, , 
46.86,0.035497, , 
46.91,0.035481, , 
46.97,0.03549, , 
47.02,0.035511, , 
47.08,0.035507, , 
47.13,0.035514, , 
47.19,0.035511, , 
47.24,0.035483, , 
47.3,0.035418, , 
47.35,0.03539, , 
47.41,0.035381, , 
47.47,0.035368, , 
47.52,0.035311, , 
47.58,0.035278, , 
47.63,0.03527, , 
47.69,0.035261, , 
47.74,0.035255, , 
47.8,0.035208, , 
47.85,0.035157, , 
47.91,0.035144, , 
47.96,0.035142, , 
48.02,0.035137, , 
48.07,0.035139, , 
48.13,0.035125, , 
48.18,0.035125, , 
48.23,0.035135, , 
48.29,0.035131, , 
48.34,0.035132, , 
48.4,0.035138, , 
48.45,0.03514, , 
48.51,0.035136, , 
48.56,0.035132, , 
48.62,0.03513, , 
48.67,0.035131, , 
48.73,0.035103, , 
48.78,0.035051, , 
48.84,0.035029, , 
48.9,0.035012, , 
48.95,0.035006, , 
49.01,0.035013, , 
49.06,0.03501, , 
49.12,0.035014, , 
49.17,0.035014, , 
49.23,0.035012, , 
49.28,0.035013, , 
49.34,0.035009, , 
49.39,0.035009, , 
49.45,0.035014, , 
49.5,0.035019, , 
49.56,0.035018, , 
49.61,0.035008, , 
49.66,0.035016, , 
49.72,0.03501, , 
49.77,0.034969, , 
49.83,0.034907, , 
49.88,0.034884, , 
49.94,0.034893, , 
49.99,0.034893, , 
50.05,0.034895, , 
50.1,0.034869, , 
50.16,0.034828, , 
50.22,0.034827, , 
50.27,0.034869, , 
50.33,0.034888, , 
50.38,0.03488, , 
50.44,0.034884, , 
50.49,0.03489, , 
50.55,0.034892, , 
50.6,0.034862, , 
50.66,0.034791, , 
50.71,0.034759, , 
50.77,0.034722, , 
50.82,0.034661, , 
50.88,0.034639, , 
50.93,0.034636, , 
50.98,0.034628, , 
51.04,0.034631, , 
51.09,0.034634, , 
51.15,0.034628, , 
51.2,0.034605, , 
51.26,0.034548, , 
51.31,0.034519, , 
51.37,0.034521, , 
51.42,0.03452, , 
51.48,0.03451, , 
51.53,0.034467, , 
51.59,0.034406, , 
51.65,0.034388, , 
51.7,0.034383, , 
51.76,0.034369, , 
51.81,0.034322, , 
51.87,0.034277, , 
51.92,0.034263, , 
51.98,0.034259, , 
52.03,0.03424, , 
52.09,0.034184, , 
52.14,0.034147, , 
52.2,0.034134, , 
52.25,0.034131, , 
52.31,0.03407, , 
52.36,0.03402, , 
52.41,0.03402, , 
52.47,0.034018, , 
52.52,0.034024, , 
52.58,0.034014, , 
52.63,0.034006, , 
52.69,0.034016, , 
52.74,0.034016, , 
52.8,0.034006, , 
52.85,0.033967, , 
52.91,0.033911, , 
52.97,0.033887, , 
53.02,0.033893, , 
53.08,0.033885, , 
53.13,0.033893, , 
53.19,0.033867, , 
53.24,0.0338, , 
53.3,0.033764, , 
53.35,0.033756, , 
53.41,0.033736, , 
53.46,0.033689, , 
53.52,0.033643, , 
53.57,0.033629, , 
53.63,0.033625, , 
53.68,0.033628, , 
53.73,0.033638, , 
53.79,0.033619, , 
53.84,0.033562, , 
53.9,0.033535, , 
53.95,0.033512, , 
54.01,0.033511, , 
54.06,0.033512, , 
54.12,0.033476, , 
54.17,0.033415, , 
54.23,0.033391, , 
54.28,0.033386, , 
54.34,0.033386, , 
54.4,0.033387, , 
54.45,0.033371, , 
54.51,0.033321, , 
54.56,0.033274, , 
54.62,0.033261, , 
54.67,0.033261, , 
54.73,0.033217, , 
54.78,0.033162, , 
54.84,0.033147, , 
54.89,0.033146, , 
54.95,0.033144, , 
55,0.033107, , 
55.06,0.033052, , 
55.11,0.033021, , 
55.16,0.033008, , 
55.22,0.033018, , 
55.27,0.033013, , 
55.33,0.032959, , 
55.38,0.032903, , 
55.44,0.032887, , 
55.49,0.032886, , 
55.55,0.032891, , 
55.6,0.032881, , 
55.66,0.0329, , 
55.72,0.03296, , 
55.77,0.033008, , 
55.83,0.033011, , 
55.88,0.032976, , 
55.94,0.032924, , 
55.99,0.032898, , 
56.05,0.032895, , 
56.1,0.032883, , 
56.16,0.032875, , 
56.21,0.032825, , 
56.27,0.032777, , 
56.32,0.032765, , 
56.38,0.032774, , 
56.43,0.032771, , 
56.48,0.032764, , 
56.54,0.032769, , 
56.59,0.032768, , 
56.65,0.032754, , 
56.7,0.03271, , 
56.76,0.032656, , 
56.81,0.032635, , 
56.87,0.03264, , 
56.92,0.032634, , 
56.98,0.032633, , 
57.03,0.032631, , 
57.09,0.032631, , 
57.15,0.032632, , 
57.2,0.032635, , 
57.26,0.032607, , 
57.31,0.032558, , 
57.37,0.032519, , 
57.42,0.0325, , 
57.48,0.032496, , 
57.53,0.032496, , 
57.59,0.032514, , 
57.64,0.032514, , 
57.7,0.032507, , 
57.75,0.032514, , 
57.81,0.032514, , 
57.86,0.032478, , 
57.91,0.032457, , 
57.97,0.032465, , 
58.03,0.032423, , 
58.08,0.032397, , 
58.13,0.032391, , 
58.19,0.032389, , 
58.24,0.032385, , 
58.3,0.03239, , 
58.35,0.0324, , 
58.41,0.03239, , 
58.47,0.032389, , 
58.52,0.032388, , 
58.58,0.032385, , 
58.63,0.032387, , 
58.69,0.032393, , 
58.74,0.032388, , 
58.8,0.032389, , 
58.85,0.032389, , 
58.91,0.032387, , 
58.96,0.032388, , 
59.02,0.032381, , 
59.07,0.032385, , 
59.13,0.032391, , 
59.18,0.032385, , 
59.23,0.032382, , 
59.29,0.032382, , 
59.34,0.032387, , 
59.4,0.032386, , 
59.45,0.032381, , 
59.51,0.032384, , 
59.56,0.032385, , 
59.62,0.032354, , 
59.67,0.032282, , 
59.73,0.032264, , 
59.78,0.032253, , 
59.84,0.032261, , 
59.9,0.032239, , 
59.95,0.032176, , 
60.01,0.032137, , 
60.06,0.032123, , 
60.12,0.03213, , 
60.17,0.032129, , 
60.23,0.032119, , 
60.28,0.032119, , 
60.34,0.032107, , 
60.39,0.032066, , 
60.45,0.032094, , 
60.5,0.032129, , 
60.56,0.032133, , 
60.61,0.032134, , 
60.66,0.032141, , 
60.72,0.032142, , 
60.77,0.032124, , 
60.83,0.03206, , 
60.88,0.03202, , 
60.94,0.032015, , 
60.99,0.032006, , 
61.05,0.032016, , 
61.1,0.032041, , 
61.16,0.032096, , 
61.22,0.032136, , 
61.27,0.032124, , 
61.33,0.03213, , 
61.38,0.032142, , 
61.44,0.032134, , 
61.49,0.03211, , 
61.55,0.032051, , 
61.6,0.032016, , 
61.66,0.031962, , 
61.71,0.031896, , 
61.77,0.031886, , 
61.82,0.031881, , 
61.88,0.031878, , 
61.93,0.031827, , 
61.98,0.031776, , 
62.04,0.031761, , 
62.09,0.031772, , 
62.15,0.031767, , 
62.2,0.031757, , 
62.26,0.03176, , 
62.31,0.031759, , 
62.37,0.031748, , 
62.42,0.031699, , 
62.48,0.031646, , 
62.53,0.031634, , 
62.59,0.031628, , 
62.65,0.031598, , 
62.7,0.03153, , 
62.76,0.031503, , 
62.81,0.031453, , 
62.87,0.031403, , 
62.92,0.031365, , 
62.98,0.031306, , 
63.03,0.031258, , 
63.09,0.03125, , 
63.14,0.031296, , 
63.2,0.031309, , 
63.25,0.03132, , 
63.31,0.031421, , 
63.36,0.031479, , 
63.41,0.031471, , 
63.47,0.031414, , 
63.52,0.031385, , 
63.58,0.031381, , 
63.63,0.031331, , 
63.69,0.031219, , 
63.74,0.031146, , 
63.8,0.031116, , 
63.85,0.031124, , 
63.91,0.031134, , 
63.97,0.031119, , 
64.02,0.031068, , 
64.08,0.031024, , 
64.13,0.031014, , 
64.19,0.031009, , 
64.24,0.031007, , 
64.3,0.031004, , 
64.35,0.030971, , 
64.41,0.030914, , 
64.46,0.030885, , 
64.52,0.030875, , 
64.57,0.030878, , 
64.63,0.030865, , 
64.68,0.030802, , 
64.73,0.030766, , 
64.79,0.030766, , 
64.85,0.030763, , 
64.9,0.03075, , 
64.95,0.030696, , 
65.01,0.030645, , 
65.06,0.030638, , 
65.12,0.030639, , 
65.17,0.030626, , 
65.23,0.030622, , 
65.29,0.030623, , 
65.34,0.030629, , 
65.39,0.030636, , 
65.45,0.030628, , 
65.5,0.030616, , 
65.56,0.030577, , 
65.61,0.030585, , 
65.67,0.030571, , 
65.72,0.030524, , 
65.78,0.030503, , 
65.83,0.030484, , 
65.89,0.030418, , 
65.94,0.030376, , 
66,0.030287, , 
66.06,0.030188, , 
66.11,0.030125, , 
66.17,0.030065, , 
66.22,0.030021, , 
66.28,0.03001, , 
66.33,0.030007, , 
66.39,0.030007, , 
66.44,0.030014, , 
66.5,0.030004, , 
66.55,0.029956, , 
66.61,0.029903, , 
66.66,0.029882, , 
66.72,0.029874, , 
66.77,0.029832, , 
66.83,0.029773, , 
66.88,0.029757, , 
66.94,0.029757, , 
66.99,0.02973, , 
67.05,0.029671, , 
67.1,0.029638, , 
67.16,0.029629, , 
67.21,0.029628, , 
67.27,0.029593, , 
67.32,0.029534, , 
67.38,0.029504, , 
67.43,0.0295, , 
67.48,0.029499, , 
67.54,0.029505, , 
67.59,0.029508, , 
67.65,0.029504, , 
67.7,0.029495, , 
67.76,0.029494, , 
67.81,0.029496, , 
67.87,0.029462, , 
67.92,0.029407, , 
67.98,0.029383, , 
68.03,0.029378, , 
68.09,0.029386, , 
68.14,0.029381, , 
68.2,0.02938, , 
68.25,0.029382, , 
68.31,0.029373, , 
68.36,0.029382, , 
68.42,0.029383, , 
68.47,0.029378, , 
68.53,0.029378, , 
68.58,0.029373, , 
68.64,0.029337, , 
68.69,0.029283, , 
68.75,0.029262, , 
68.81,0.029254, , 
68.86,0.029242, , 
68.92,0.029176, , 
68.97,0.029137, , 
69.03,0.029134, , 
69.08,0.029133, , 
69.14,0.029131, , 
69.19,0.029134, , 
69.25,0.029089, , 
69.3,0.02904, , 
69.36,0.029016, , 
69.41,0.029008, , 
69.47,0.029013, , 
69.52,0.029017, , 
69.58,0.029019, , 
69.63,0.028986, , 
69.69,0.028919, , 
69.74,0.028901, , 
69.8,0.028893, , 
69.85,0.02888, , 
69.91,0.028884, , 
69.96,0.028878, , 
70.02,0.028874, , 
70.07,0.028883, , 
70.13,0.028885, , 
70.18,0.028882, , 
70.23,0.028886, , 
70.29,0.028888, , 
70.34,0.028883, , 
70.4,0.02888, , 
70.45,0.028878, , 
70.51,0.028881, , 
70.56,0.028864, , 
70.62,0.028806, , 
70.67,0.02878, , 
70.73,0.028744, , 
70.78,0.028671, , 
70.84,0.028573, , 
70.89,0.028513, , 
70.95,0.028519, , 
71,0.028511, , 
71.06,0.028464, , 
71.11,0.028421, , 
71.17,0.028396, , 
71.22,0.028395, , 
71.28,0.028393, , 
71.33,0.02838, , 
71.39,0.028383, , 
71.44,0.028346, , 
71.5,0.028279, , 
71.56,0.028269, , 
71.61,0.028257, , 
71.67,0.028243, , 
71.72,0.028228, , 
71.78,0.028173, , 
71.83,0.028143, , 
71.89,0.028133, , 
71.94,0.028123, , 
72,0.028079, , 
72.05,0.028036, , 
72.11,0.028021, , 
72.16,0.028019, , 
72.22,0.027969, , 
72.22,0.027969, , 